File: 2021/xrd/raw_data/asc/#8137_4_40_R12_1_8_M15_P0026_T200 _1.ASC
4,00993028 0 260,47648646279
4,19193028 -3122,1324839839 237,850426965949
4,37393028 28297,9211455402 272,308930628901
4,55593028 89122,74241104 318,147669631053
4,73793028 3495,99712241542 204,575957754582
4,91993028 271,433699978785 187,61165559522
5,10193028 366,058479509629 176,343769167258
5,28393028 -157,929589198757 165,809351169929
5,46593028 -246,91411068826 161,645448240017
5,64793028 -316,126089038573 159,385806910872
5,82993028 -114,232001981765 159,987161518758
6,01193028 315,666498707145 162,560131342516
6,19393028 3859,44727167329 173,040658835895
6,37593028 38889,4240659521 245,21634987668
6,55793028 8165,77357446507 194,458738122405
6,73993028 5336,13479290441 184,924768987705
6,92193028 4491,14596213513 175,363928817611
7,10393028 3515,31295511646 166,638968427886
7,28593028 3065,95015565084 160,574409534884
7,46793028 2919,9020502186 156,069656065718
7,64993028 4666,89512649997 155,931929172587
7,83193028 36249,4027908968 199,05773133514
8,01393028 4087,34384025845 151,618683693681
8,19593028 1713,44101041938 147,544421995565
8,37793028 1184,4725304769 147,461003697205
8,55993028 1024,67268916649 148,87325075813
8,74193028 985,767418026486 151,310606113051
8,92393028 2949,32469330652 159,151921772045
9,10593028 18205,0165334979 201,974031907753
9,28793028 1346,37413770408 161,569374310065
9,46993028 671,811900193577 153,075703792107
9,65193028 524,170934533578 146,898852026761
9,83393028 337,482222017572 141,5057888348
10,01593028 579,385632441599 137,999306225031
10,19793028 2227,50967954246 137,852987782044
10,37993028 280,777712254941 131,653696888755
10,56193028 186,365773000221 129,920014021797
10,74393028 97,7822157613209 129,004908748183
10,92593028 448,50316349388 129,828509372783
11,10793028 9226,35755463542 148,485877423711
11,28993028 768,861573581751 133,240217438835
11,47193028 4,68378089488215 133,234572466456
11,65393028 -26,8540474323763 135,780322709183
11,83593028 -122,475227049166 138,549440990787
12,01793028 93,6589074684434 135,069721646412
12,19993028 -127,038847198774 128,881891698383
12,38193028 53,1885732225219 124,752085062461
12,56393028 63,3604878404713 121,199995900588
12,74593028 109,758682403512 118,490939321321
12,92793028 125,299803688222 116,385096660787
13,10993028 14,656346944319 114,829945648979
13,29193028 112,391392167478 114,602314071102
13,47393028 563,881890994762 115,811024532508
13,65593028 9370,39517832579 136,292506643852
13,83793028 502,769321071821 118,573722931912
14,01993028 185,244318101537 119,975996882126
14,20193028 -10,2261967633622 122,107001975367
14,38393028 -58,2278542403719 125,137152380501
14,56593028 80,2015193917105 125,785657142997
14,74793028 117,971257971019 121,31385448595
14,92993028 51,6777828573831 116,956095432175
15,11193028 40,6951079705923 113,499205728505
15,29393028 5,06311422344606 110,750974645399
15,47593028 153,05093090645 109,213573816169
15,65793028 137,529325934087 108,024219363786
15,83993028 642,343258873866 108,763071683447
16,02193028 206,78171614638 108,02000528292
16,20393028 116,162491520391 108,747532952469
16,38593028 158,125143556604 110,668145711557
16,56793028 89,5929008707717 113,020284135376
16,74993028 141,911767456211 116,294768003641
16,93193028 84,0225444362059 119,673058834302
17,11393028 271,366821840269 124,424211054917
17,29593028 73,2760324118062 119,5718154864
17,47793028 164,407909507304 116,299892019499
17,65993028 6,87959128537841 112,769952816016
17,84193028 51,0201130248151 110,427526267211
18,02393028 72,623893423096 108,704036393178
18,20593028 370,492210283674 108,296583369769
18,38793028 302,485301137246 107,614600508374
18,56993028 130,461618710317 107,422984312261
18,75193028 657,699919889908 109,533340475845
18,93393028 810,355433358174 111,807611192126
19,11593028 236,149169065112 112,423484516821
19,29793028 159,053024904998 115,038944215082
19,47993028 293,160003498763 118,895016424965
19,66193028 459,408087748928 123,532537265708
19,84393028 321,998215220715 121,989247664969
20,02593028 650,37177976693 119,131223833364
20,20793028 622,743091233765 115,633449746198
20,38993028 1155,63862487198 114,32330875235
20,57193028 1067,17975274158 111,644638584198
20,75393028 636,383508467645 109,010926465614
20,93593028 2430,77866126982 112,304318722664
21,11793028 838,549093595681 108,508890601595
21,29993028 596,874975179549 108,527333794694
21,48193028 1480,07845251752 112,099297144241
21,66393028 579,251891229447 111,691209471617
21,84593028 702,311979482753 114,868535657743
22,02793028 516,417709669774 117,448526466434
22,20993028 729,856645606185 121,918853936786
22,39193028 1184,94386621761 125,982143385697
22,57393028 572,925430980357 119,257485276875
22,75593028 400,472091236052 114,948620578424
22,93793028 754,305195105099 112,969277067722
23,11993028 452,407561059043 109,530676419366
23,30193028 1066,71709795232 109,312578835352
23,48393028 823,081476811704 107,273010020192
23,66593028 321,588233278733 105,646136865657
23,84793028 423,420841356204 106,092262433395
24,02993028 174,434333157387 106,327745878464
24,21193028 261,14272413527 108,084853914909
24,39393028 276,217598701381 110,239383553533
24,57593028 214,985348536877 112,733476982019
24,75793028 442,659919525748 116,856772195214
24,93993028 158,743554481249 119,486915659398
25,12193028 543,733890109387 118,190389425785
25,30393028 388,238731241481 113,720122638382
25,48593028 197,493504964655 109,640174684599
25,66793028 319,010908115065 107,275714702032
25,84993028 161,828016184046 104,67646765885
26,03193028 366,269535240092 103,693294839408
26,21393028 373,187650312639 102,850677360539
26,39593028 618,324058834481 103,270823755327
26,57793028 369,820404864115 103,156175079767
26,75993028 1012,13818695094 106,070532975053
26,94193028 384,954040888721 106,03435285664
27,12393028 463,090153943499 108,567145997112
27,30593028 492,900283844618 111,739551332005
27,48793028 421,859181510043 114,861974614846
27,66993028 309,455759620942 114,649758998866
27,85193028 516,038707487565 111,390585445721
28,03393028 1050,74689089159 109,513093694143
28,21593028 342,163609780767 104,143798282947
28,39793028 509,88542096902 102,199578276282
28,57993028 242,425518439023 99,6604267332579
28,76193028 269,577800870837 98,5378902684145
28,94393028 244,426899751223 97,9681512081161
29,12593028 527,522163685031 98,8167379525592
29,30793028 221,85004669164 98,7195976756212
29,48993028 1110,78566148317 102,70024032453
29,67193028 409,836671705145 102,586252690312
29,85393028 290,516077427789 104,727948552592
30,03593028 129,930395529371 106,909681900433
30,21793028 235,123473852491 110,408752041451
30,39993028 301,6819573712 106,622713614296
30,58193028 399,450579514434 103,259621739574
30,76393028 148,393811105414 99,2520721826433
30,94593028 180,436716014832 96,685002581676
31,12793028 115,182868838029 94,5716954245406
31,30993028 229,672728051092 93,4102443625686
31,49193028 108,410176029719 92,2942734932507
31,67393028 202,010491762499 92,3309174288806
31,85593028 -19,8174723384873 92,0020453294282
32,03793028 58,7493174720476 93,2146224432049
32,21993028 96,9229010810304 94,7916602589356
32,40193028 151,093059123734 96,8727208303588
32,58393028 309,733125846521 100,0015661315
32,76593028 138,284929407069 102,132592485486
32,94793028 104,699408595141 100,590428710137
33,12993028 -34,8430308912111 96,2502535827701
33,31193028 90,8121735694831 93,7630659341676
33,49393028 55,0180638859283 90,8134203939351
33,67593028 217,212353203201 89,3301680980561
33,85793028 108,78820371349 87,3076563276357
34,03993028 262,150408274016 86,7140564791325
34,22193028 -18,2027538591738 85,4029177871778
34,40393028 69,9896841161963 85,6866514611682
34,58593028 9,09494701772928E-13 86,0632224711996
34,76793028 78,1379659556096 87,5641768539977
34,94993028 189,406775008644 89,7000157058536
35,13193028 161,557551186793 91,7212113468694
35,31393028 179,583065937709 94,37497951176
35,49593028 281,297680437703 96,2758480188316
35,67793028 209,586752097985 92,3860554832004
35,85993028 112,884969959457 88,8761450429021
36,04193028 58,0666514811201 85,9888591270536
36,22393028 103,054730846237 83,9769016178491
36,40593028 87,3797575468207 82,3523545203845
36,58793028 95,0206745547848 81,2085265688994
36,76993028 68,4272405850315 80,5468775588572
36,95193028 107,788476959448 80,5671422087699
37,13393028 105,458545528685 80,9931204130831
37,31593028 125,961750577615 81,9879447156589
37,49793028 152,539591244769 83,6207870725557
37,67993028 269,784067648857 85,8955799431799
37,86193028 136,547758652524 87,5287340699093
38,04393028 136,27459058365 90,146108055263
38,22593028 -11,135679294398 87,4571500668258
38,40793028 40,9788582432238 85,1285102194098
38,58993028 95,8805025506144 83,236825920706
38,77193028 11,366964972749 80,9262769769896
38,95393028 13,5318831298123 79,6553668899841
39,13593028 4,95756906808356 78,8465157488844
39,31793028 -39,2157592717945 78,2828624127462
39,49993028 80,3447203779215 78,7447507353742
39,68193028 -20,8858056976114 79,046761616152
39,86393028 89,2522285982059 80,5755045327279
39,96793028 0,488770942193696 81,010019878937