File: 2021/xrd/raw_data/asc/#8139_4_40_R12_1_8_M15_P0026_T200 _1.ASC
4,00993028 0 261,335034008072
4,19193028 -4049,01403973341 225,489338498749
4,37393028 1859,66629758339 214,190147283578
4,55593028 34277,1125831693 253,854325012031
4,73793028 18501,2718081188 218,444820231233
4,91993028 1605,50482909001 188,780785049611
5,10193028 365,16906685834 181,310613742399
5,28393028 -109,223173663835 176,029263885175
5,46593028 -258,437668247287 172,317704525757
5,64793028 -82,9300035867163 170,490080119692
5,82993028 -93,5085796530002 169,834729027406
6,01193028 -111,136199476154 171,197123325314
6,19393028 311,336223459166 174,780631847257
6,37593028 5611,33311961655 189,761008415109
6,55793028 13827,8238162491 214,874897818087
6,73993028 2469,44403093544 184,974598044017
6,92193028 1932,20226164123 175,905364147907
7,10393028 1848,06514158111 168,853715798807
7,28593028 1768,37792719414 163,007327900514
7,46793028 1488,19470680811 157,699143584493
7,64993028 1247,87784984215 153,52080122981
7,83193028 5761,26667638113 158,314008102334
8,01393028 10159,5741973498 163,533983336868
8,19593028 1139,24435377022 148,266230199118
8,37793028 567,294930114562 147,429030998628
8,55993028 293,630415308655 147,732953269097
8,74193028 107,757620900262 148,950297647784
8,92393028 612,198226668768 152,594523266698
9,10593028 6008,79210506475 170,230877681025
9,28793028 2886,48178068578 163,513812214275
9,46993028 34,2127637333706 147,79798705106
9,65193028 9,00897997446009 141,572826920276
9,83393028 42,6787272420952 136,431048275474
10,01593028 30,8900599930967 132,042009974217
10,19793028 920,998310929614 130,24567436274
10,37993028 465,105587174707 126,406884960633
10,56193028 105,675826429971 123,678742510635
10,74393028 176,972534660532 122,568374193144
10,92593028 130,521654600805 122,263779054268
11,10793028 1433,38594511597 126,07758234502
11,28993028 2517,42674131005 131,320433091444
11,47193028 -2,40199707591273 126,909354617399
11,65393028 -78,1903568809084 129,533946898235
11,83593028 -70,0906399648338 132,838513335355
12,01793028 186,044118233986 130,058034004144
12,19993028 -7,69190834358233 124,520642490388
12,38193028 -12,6118470950478 120,263692418994
12,56393028 -97,5718926943264 116,598471598998
12,74593028 0 114,086786499327
12,92793028 10,1839784690419 112,153133919498
13,10993028 21,6042160609013 110,942419993536
13,29193028 7,54736306359428 110,573094019269
13,47393028 89,1762527255169 111,152746613545
13,65593028 1799,88733932756 116,158155885232
13,83793028 1879,63885168621 118,918670474658
14,01993028 194,544685877354 116,468991719488
14,20193028 33,4492679798223 118,724301413118
14,38393028 4,11666028612945 121,957363128954
14,56593028 -145,60919839541 121,557651379971
14,74793028 35,7717383814525 117,936061928388
14,92993028 85,8618092202305 114,231716700768
15,11193028 -83,0774289291394 110,428726033983
15,29393028 -10,8278153821147 107,883541594875
15,47593028 44,4977288747232 106,120062229417
15,65793028 121,60667202039 105,150568767045
15,83993028 317,688630433402 105,281851688719
16,02193028 114,152191002748 105,090881176722
16,20393028 74,3201049909912 105,970061185927
16,38593028 107,894776628602 107,670781089761
16,56793028 268,609288627857 110,354936246179
16,74993028 112,846589030098 112,718243136672
16,93193028 147,989586830403 116,321670222173
17,11393028 252,879213449688 120,57703788947
17,29593028 42,2479783737017 115,68128138547
17,47793028 74,5446657499715 112,296075102246
17,65993028 90,5208778754877 109,402732420866
17,84193028 193,836396230328 107,303924651885
18,02393028 85,3440972762146 105,168984071931
18,20593028 100,490966476421 104,017423761515
18,38793028 494,432881479677 104,479355647298
18,56993028 145,606060510143 103,80313294221
18,75193028 377,612119412937 105,235283955863
18,93393028 1113,6064811498 108,803554195843
19,11593028 62,0223423967509 108,004859743322
19,29793028 163,45684514075 110,959592913985
19,47993028 173,662012370102 114,173401958085
19,66193028 299,97753534807 118,489093122938
19,84393028 345,786506058377 117,641048154629
20,02593028 546,976823138778 114,638128528519
20,20793028 321,895981214303 110,479800789105
20,38993028 413,245658170377 108,016875033899
20,57193028 860,21629285532 107,017599910285
20,75393028 387,709204593785 104,29959726928
20,93593028 725,076042570247 104,344602628992
21,11793028 941,777055672375 104,69868645346
21,29993028 189,123357530568 103,374841661564
21,48193028 369,927440450683 104,993340905309
21,66393028 424,586334181981 107,197540538203
21,84593028 209,963699925819 108,854442070164
22,02793028 261,787342079374 112,052605666146
22,20993028 205,905137859191 115,310128250556
22,39193028 330,031026864654 117,924929346314
22,57393028 592,023285065294 114,844947820546
22,75593028 176,069834445183 109,902794528359
22,93793028 242,571676101523 107,125242498899
23,11993028 173,906460608304 104,621703793858
23,30193028 405,52564962582 103,545260349462
23,48393028 849,658009548407 103,412841784352
23,66593028 191,729166591318 101,373206954138
23,84793028 130,687367989448 101,393790657587
24,02993028 58,0077255353472 102,114583491785
24,21193028 111,961683481463 103,764112458561
24,39393028 21,4397122965365 105,373674520021
24,57593028 148,820958010218 108,562695713636
24,75793028 376,9091422873 112,539163396244
24,93993028 78,9953468931371 115,008629732118
25,12193028 255,435417148758 113,106971011188
25,30393028 149,201569923064 109,08654202639
25,48593028 -30,1162513695481 105,333271785273
25,66793028 177,268455715022 103,390935491283
25,84993028 143,078395882244 101,33280827285
26,03193028 92,7258349938165 99,7928789438577
26,21393028 256,116274845414 99,4705453151452
26,39593028 452,188568916368 99,8273200577085
26,57793028 330,229998139501 100,098980902861
26,75993028 455,857962962038 101,667629298824
26,94193028 668,065476959116 104,219214202624
27,12393028 386,746590551984 105,546558082479
27,30593028 462,383150117201 108,822390910055
27,48793028 347,944720366097 111,703135069516
27,66993028 390,924962257648 112,22158994135
27,85193028 470,909166535363 108,587667202403
28,03393028 940,284680104126 106,736568915643
28,21593028 412,083059102874 102,005968005824
28,39793028 408,390706368053 99,7376906145491
28,57993028 319,484194409718 97,7522954507322
28,76193028 305,413291446654 96,6804545539114
28,94393028 280,993067179411 96,1943449292542
29,12593028 454,724568106513 96,854700629691
29,30793028 396,825550780422 97,4406762378756
29,48993028 581,783955572471 99,4481903755888
29,67193028 508,901183402631 101,345986691677
29,85393028 248,098488423118 102,825767960642
30,03593028 345,515026730256 106,217882087762
30,21793028 373,613522086725 109,542214464481
30,39993028 355,716747424828 105,454799006066
30,58193028 447,311732674589 102,20819993647
30,76393028 433,268810752674 99,0912276934627
30,94593028 132,154304166318 95,4948038873507
31,12793028 287,205570255832 94,1521798463559
31,30993028 366,794534657576 92,9666552458917
31,49193028 173,567656142394 91,6841520613939
31,67393028 175,393494208951 91,5743492484324
31,85593028 259,12180883245 92,2428540598514
32,03793028 224,964406295268 93,1932154738077
32,21993028 211,699151767793 94,7529124116277
32,40193028 113,709442245628 96,3418770678319
32,58393028 322,281142594989 99,6701600231527
32,76593028 376,284092507888 102,902188226023
32,94793028 101,613982967386 100,286818142581
33,12993028 149,353349281636 96,9253013967679
33,31193028 77,4289460876371 93,6024463079443
33,49393028 64,0598923796606 90,873218782494
33,67593028 217,456927249622 89,3109152689432
33,85793028 120,688700951403 87,4926201771669
34,03993028 313,432124035657 87,0603009310176
34,22193028 170,324205928472 86,2379745369417
34,40393028 102,757737584429 86,2023075163522
34,58593028 33,0983250923236 86,78266534599
34,76793028 37,4981580883859 88,0224189726916
34,94993028 153,834684544653 90,258705186962
35,13193028 138,450984572292 92,430274627197
35,31393028 102,558698364289 94,8818968320122
35,49593028 58,7425281745582 96,0833120289141
35,67793028 244,686545763981 93,4968734909317
35,85993028 125,009342770297 89,9774472212747
36,04193028 44,5156578998558 86,9631151072427
36,22393028 132,820868744705 85,2769563424331
36,40593028 94,8784696625326 83,5359957973902
36,58793028 104,8420623562 82,4865774829397
36,76993028 61,322967081348 81,8684428444554
36,95193028 53,3432990183419 81,853726435647
37,13393028 87,4411396634414 82,4191067741037
37,31593028 184,665082358754 83,8345544984427
37,49793028 97,2275566748849 85,0288843975392
37,67993028 64,4706678399489 86,7923565256051
37,86193028 53,5648416582899 89,1456370384754
38,04393028 186,541720319701 92,5740488049476
38,22593028 91,9173527863786 89,9186183748177
38,40793028 101,064543587367 87,0162112633706
38,58993028 214,189131775894 85,0345330133647
38,77193028 99,0651355291357 82,5800660949704
38,95393028 8,25270510225528 80,6730690033812
39,13593028 84,7470834888045 79,9071178389071
39,31793028 -4,39087714128073 79,1549026215486
39,49993028 146,873675700297 79,8033307609707
39,68193028 54,9326682207766 80,2325513573659
39,86393028 60,0227106071188 81,5015219437751
39,96793028 1,83897206684378 82,1029915815047