File: 2021/xrd/raw_data/asc/#8201_Pyn-MOF_4_40_R12_1_8_M15_P0026_T200 _1.ASC
4,00993028 0 253,152128175925
4,19193028 -2898,85384758399 208,016385149065
4,37393028 -122,548447837315 180,818905878232
4,55593028 -402,231242792164 166,927462307177
4,73793028 -254,874806065147 157,868914036859
4,91993028 -111,858584947002 152,041372654493
5,10193028 -375,345506628186 147,502037446619
5,28393028 -117,048195897805 145,117533537842
5,46593028 -138,069684791606 143,186291153221
5,64793028 -22,5094581586964 142,303679110596
5,82993028 76,5903515390492 142,25768579677
6,01193028 192,2401705214 143,451782209113
6,19393028 25,4670804033431 144,698342820766
6,37593028 -9,73871185648022 146,907388022435
6,55793028 427,660500432314 151,370349081258
6,73993028 65,4781696273676 148,048864519299
6,92193028 189,872326318709 142,677892121381
7,10393028 11,1501272972855 137,12280304664
7,28593028 122,914220051975 133,246095249669
7,46793028 26,5161299335032 129,820507658688
7,64993028 70,6334951139943 127,463206696687
7,83193028 21,3886567030258 125,723955338159
8,01393028 274,331724009255 125,463862822908
8,19593028 3248,55905244877 131,368280842568
8,37793028 2038,16196197509 130,431568877211
8,55993028 1057,91835809165 129,70612818475
8,74193028 4843,38065938676 141,126030084674
8,92393028 32218,1899431148 205,617361756492
9,10593028 10640,0758675271 167,477177412481
9,28793028 3235,15188638592 148,450706083503
9,46993028 4227,02505160915 145,085174322213
9,65193028 1165,43550543689 130,78182705575
9,83393028 429,777232005268 124,724638112731
10,01593028 935,420142058545 122,592886721997
10,19793028 4124,12498470434 126,798645399401
10,37993028 1142,70725230133 118,236300091056
10,56193028 0 114,691260087723
10,74393028 -7,92068131032647 114,410241686119
10,92593028 54,6993694851517 115,121778673707
11,10793028 501,127948083607 117,358155744105
11,28993028 4827,04676549446 130,621452282458
11,47193028 604,491504720081 122,490157258367
11,65393028 315,116805596239 124,658529311322
11,83593028 946,627393961485 130,641265659163
12,01793028 5184,58419316248 141,579940217148
12,19993028 10754,1657725918 150,646167799716
12,38193028 19888,9003291204 164,817140011996
12,56393028 62797,4192783337 227,93286225459
12,74593028 26628,6847263625 161,626215030561
12,92793028 3613,62165063738 116,260811158415
13,10993028 1349,68139099705 110,02277271545
13,29193028 2704,03355612439 112,575145809585
13,47393028 1702,26013994319 110,886622467282
13,65593028 260,562338081751 108,096268029618
13,83793028 -11,5595797832848 108,771491909627
14,01993028 63,5524890466304 111,001895211195
14,20193028 102,76893289893 113,880201624709
14,38393028 40,1288141272626 116,777725608839
14,56593028 1120,93235082194 121,3227405231
14,74793028 6267,23113021859 133,732556984711
14,92993028 1233,52174070515 112,713917512326
15,11193028 191,790932366465 106,39720940091
15,29393028 111,400673588236 103,574870790852
15,47593028 710,549898412629 103,333296041586
15,65793028 3013,37273657305 107,581083368484
15,83993028 381,303518616524 100,683653460781
16,02193028 62,2323741702521 99,9542747231942
16,20393028 121,954413322162 100,865340286953
16,38593028 58,5764398423971 102,074416985478
16,56793028 365,988550987689 104,907919178646
16,74993028 -4,63614830361985 106,073431049783
16,93193028 23,9703390287168 109,039231179467
17,11393028 481,866627623317 114,300936782247
17,29593028 719,46432043824 110,911910451287
17,47793028 186,615311826753 105,196780458503
17,65993028 160,41110584821 101,96665030009
17,84193028 525,409616862112 100,403420530864
18,02393028 2284,71148147445 103,064333276031
18,20593028 373,010308678484 96,410704961574
18,38793028 -6,58907766614175 94,583538415296
18,56993028 144,063276613174 94,8022523073137
18,75193028 154,501260560477 95,4391592170452
18,93393028 213,269680555528 96,8950393642913
19,11593028 486,047730820783 99,9824588506852
19,29793028 19,8672275881008 100,794130257532
19,47993028 116,438696805159 104,096861195917
19,66193028 96,0608946218108 107,478608030387
19,84393028 185,987232504306 107,040176251793
20,02593028 114,134581723421 103,483390764322
20,20793028 341,360631612257 101,577275797637
20,38993028 240,050482448527 99,0427213231484
20,57193028 -26,0464940219899 96,5811573262473
20,75393028 506,095973960757 97,1383144868087
20,93593028 151,055648233415 95,6376978043852
21,11793028 184,724458556396 95,8684534710506
21,29993028 1788,24486775271 100,794451891256
21,48193028 1671,27107885818 102,391867496876
21,66393028 671,035109578576 101,446787816192
21,84593028 1760,59344082156 107,724573745029
22,02793028 703,452199630015 107,788750416354
22,20993028 42,362569271042 108,823553228081
22,39193028 -32,98601875643 110,823036658324
22,57393028 43,4636692852382 107,811368446213
22,75593028 445,452772608653 106,269284846803
22,93793028 155,283043678597 102,711788973616
23,11993028 206,80694513195 100,977455902483
23,30193028 128,003141936099 99,3879930101152
23,48393028 392,298849000373 99,3199729543361
23,66593028 778,115284566582 100,108725655948
23,84793028 2469,37903097423 104,758905288069
24,02993028 3743,05000765262 109,312315736494
24,21193028 1908,19819417752 106,954139702765
24,39393028 1890,61971436078 109,249649987865
24,57593028 4776,3458693998 121,8163571827
24,75793028 6832,85418559791 133,568380731135
24,93993028 6623,52647506066 139,026223650088
25,12193028 14043,910234615 158,045390683759
25,30393028 18922,6108674917 162,092947149311
25,48593028 12392,3522611315 138,896455252763
25,66793028 2541,05356108956 109,550196791366
25,84993028 2297,33600995475 106,765666186769
26,03193028 1802,53578872673 103,858435712224
26,21393028 1531,29020256888 102,478328401551
26,39593028 4709,04287106711 109,893850701209
26,57793028 4054,31927572017 109,55917874759
26,75993028 2584,76401153653 107,243854935852
26,94193028 2631,64825971732 109,852265013478
27,12393028 2945,26737529274 113,722239546046
27,30593028 6453,7006062441 128,432141425964
27,48793028 33733,5458034267 207,206325081654
27,66993028 55538,5242643208 253,7551996643
27,85193028 13356,915716917 148,591842105912
28,03393028 5829,52471617792 121,547887153575
28,21593028 3870,88378482336 111,532044335822
28,39793028 1817,72286856766 102,832676154717
28,57993028 1237,38869511703 99,2793271366177
28,76193028 2397,06224798449 100,925635576381
28,94393028 6832,87802415343 110,758174789733
29,12593028 2833,54650093115 101,610276164571
29,30793028 887,458280793496 97,1131777971627
29,48993028 737,243951749478 97,9944760257149
29,67193028 939,768917781557 100,477762497528
29,85393028 810,730800191837 102,361662053586
30,03593028 511,601710980516 103,906950045363
30,21793028 587,195965878574 107,1200535235
30,39993028 475,645094475383 102,340899804737
30,58193028 245,162215984376 97,6108623947288
30,76393028 141,630578881991 94,1259064178835
30,94593028 200,841058177494 91,7558055737611
31,12793028 235,19090090186 89,6416426856956
31,30993028 442,864840413804 88,707391326053
31,49193028 858,199195201008 88,8894894870068
31,67393028 709,814385006182 88,0966075825253
31,85593028 303,036785737998 87,1139881412332
32,03793028 209,640740365458 87,447930799691
32,21993028 100,665492135447 88,3144141247109
32,40193028 0 89,4120059158332
32,58393028 -35,2765912832556 91,4643355039696
32,76593028 78,8126859635731 94,5883116336024
32,94793028 301,519224064919 94,4711617157855
33,12993028 198,166087049855 90,5072839321621
33,31193028 226,916110171587 87,7772692731874
33,49393028 340,547164894821 85,6619625829052
33,67593028 590,464363110251 84,3786909388147
33,85793028 405,496607540704 82,2146153526087
34,03993028 483,414279357038 81,4646337497486
34,22193028 1614,95288122528 84,4335601829254
34,40393028 1675,9528821919 84,9513364292662
34,58593028 354,041370170071 81,2811562785649
34,76793028 332,520406737759 82,4208945005125
34,94993028 929,182086867437 86,2898693360144
35,13193028 627,828152656463 87,2646286901826
35,31393028 223,106179539623 87,742029160866
35,49593028 11,5761640535297 87,7809166248343
35,67793028 13,0635997660088 84,4553174269074
35,85993028 48,7606284348881 81,7686790058649
36,04193028 -0,395804344386761 79,0229405859198
36,22393028 24,3370928257973 77,1327308919474
36,40593028 79,8688851300376 75,6279833304715
36,58793028 99,4579735415223 74,5508475931469
36,76993028 0 73,5882599008216
36,95193028 -80,2197159200291 73,490307221282
37,13393028 191,145270601813 75,111270392573
37,31593028 127,253829128019 75,9481625455923
37,49793028 109,48946438438 77,5355513970822
37,67993028 141,658080416255 79,6283398901259
37,86193028 318,358674486313 82,9225841256392
38,04393028 204,395688312602 85,1039317149066
38,22593028 49,5194467146976 82,2637229044649
38,40793028 54,6699885606567 79,7845968927188
38,58993028 241,918015925034 78,327342905075
38,77193028 212,898453254554 76,4190776711807
38,95393028 580,606078729429 76,2902514360791
39,13593028 304,918248056224 74,3133280272084
39,31793028 -7,27937479121329 72,9163587596624
39,49993028 -139,847621571787 72,9360635189505
39,68193028 9,03734794353386 74,4451514720644
39,86393028 183,291504541078 76,467930836217
39,96793028 6,03477572559859 76,8553308674895