File: 2021/xrd/cif_files/1447556.csv
GENERAL$,
1,0
1.4,0.02129
1.8,0.01685
2.2,0.01611
2.6,0.02032
3,0.0654
3.4,0.09995
3.8,0.02858
4.2,0.07139
4.6,29.85603
5,0.04674
5.4,0.06007
5.8,0.05813
6.2,0.05173
6.6,0.18209
7,0.01801
7.4,0.0236
7.8,0.28485
8.2,0.06286
8.6,0.07547
9,0.05313
9.4,0.02865
9.8,0.09956
10.2,0.11143
10.6,0.01099
11,0.02441
11.4,0.03407
11.8,0.0061
12.2,0.00164
12.6,0.03058
13,0.20273
13.4,0.05036
13.8,0.52032
14.2,0.06797
14.6,0.00832
15,0.00365
15.4,0.00258
15.8,0.01768
16.2,0.31345
16.6,0.01725
17,0.00609
17.4,8.9E-4
17.8,7.7E-4
18.2,0.00422
18.6,0.02288
19,0.12126
19.4,0.00467
19.8,0.18254
20.2,0.0061
20.6,0.0562
21,0.02452
21.4,0.03273
21.8,0.04614
22.2,0.00579
22.6,0.03786
23,0.08204
23.4,0.03939
23.8,0.01011
24.2,0.13722
24.6,0.22001
25,0.02228
25.4,0.02355
25.8,0.00393
26.2,0.00466
26.6,0.01629
27,0.03037
27.4,0.01285
27.8,0.01122
28.2,0.03593
28.6,0.02076
29,0.0237
29.4,0.13057
29.8,0.11441
30.2,0.04425
30.6,0.05193
31,0.01874
31.4,0.13082
31.8,0.00469
32.2,0.03337
32.6,0.14018
33,0.02504
33.4,0.01495
33.8,0.03618
34.2,0.06898
34.6,0.02406
35,0.01847
35.4,0.02389
35.8,0.0296
36.2,0.00707
36.6,0.02774
37,0.00657
37.4,0.01134
37.8,0.0498
38.2,0.01369
38.6,0.02067
39,0.0092
39.4,0.01171
39.8,0.0659
40.2,0.02414
40.6,0.02331
41,0.01244
41.4,0.1157
41.8,0.04162
42.2,0.03131
42.6,0.05581
43,0.03972
43.4,0.10274
43.8,0.0869
44.2,0.13212
44.6,0.05851
45,0.00576
45.4,0.04719
45.8,0.00454
46.2,0.01146
46.6,0.02338
47,0.06726
47.4,0.03629
47.8,0.01677
48.2,0.00602
48.6,0.02283
49,0.01189
49.4,0.00355
49.8,0.01595
50.2,0.02368
50.6,0.01527
51,0.01671
51.4,0.01451
51.8,0.0072
52.2,0.00747
52.6,0.01362
53,0.02045
53.4,0.00801
53.8,0.03408
54.2,0.01563
54.6,0.02562
55,0.03575
55.4,0.01154
55.8,0.01735
56.2,0.03179
56.6,0.01079
57,0.00513
57.4,0.00888
57.8,0.01429
58.2,0.01898
58.6,0.02279
59,0.01192
59.4,0.0159
59.8,0.00643
60.2,0.00681
60.6,0.00379
61,0.02275
61.4,0.0202
61.8,0.01149
62.2,0.01048
62.6,0.0135
63,0.01626
63.4,0.00666
63.8,0.0051
64.2,0.02138
64.6,0.00468
65,0.01464
65.4,0.01306
65.8,0.00675
66.2,0.01194
66.6,0.01124
67,0.00452
67.4,0.01445
67.8,0.01297
68.2,0.00806
68.6,0.00567
69,0.01346
69.4,0.00405
69.8,0.0049
70.2,0.00203
70.6,0.00488
71,0.00358
71.4,0.00309
71.8,0.00483
72.2,0.00217
72.6,0.00221
73,0.00305
73.4,0.00248
73.8,0.00448
74.2,0.00395
74.6,0.00223
75,0.00307
75.4,0.00248
75.8,0.00284
76.2,0.00291
76.6,0.00242
77,0.00557
77.4,0.00259
77.8,0.00324
78.2,0.00371
78.6,0.00272
79,0.00469
79.4,0.0034
79.8,0.00544
80.2,0.00342
80.6,0.00254
81,0.00339
81.4,0.00619
81.8,0.00452
82.2,0.00346
82.6,0.00399
83,0.00322
83.4,0.00707
83.8,0.00459
84.2,0.00534
84.6,0.00439
85,0.00272
85.4,0.00397
85.8,0.00528
86.2,0.00429
86.6,0.00356
87,0.00534
87.4,0.0029
87.8,0.00529
88.2,0.00386
88.6,0.0043
89,0.00349
89.4,0.00287
89.8,0.00358
90.2,0.00486
90.6,0.00308
91,0.00272
91.4,0.00337
91.8,0.00454
92.2,0.00447
92.6,0.00276
93,0.00338
93.4,0.00254
93.8,0.00176
94.2,0.00422
94.6,0.00448
95,0.00318
95.4,0.00292
95.8,0.00346
96.2,0.00316
96.6,0.0029
97,0.00216
97.4,0.00372
97.8,0.00342
98.2,0.0019
98.6,0.00206
99,0.00307
99.4,0.00259
99.8,0.00165
100.2,0.00242
100.6,0.00174
101,0.00256
101.4,0.00211
101.8,0.00229
102.2,0.00156
102.6,0.00151
103,0.0022
103.4,0.00314
103.8,0.00261
104.2,0.00183
104.6,0.0035
105,0.00237
105.4,0.00236
105.8,0.00198
106.2,0.00211
106.6,0.00175
107,0.00139
107.4,0.0019
107.8,0.00172
108.2,0.00158
108.6,0.0018
109,0.00121
109.4,0.00208
109.8,0.00219
110.2,0.00188
110.6,0.002
111,0.00207
111.4,0.00176
111.8,0.00108
112.2,0.00112
112.6,0.00138
113,0.00146
113.4,0.00105
113.8,0.00131
114.2,0.00168
114.6,0.0015
115,0.00126
115.4,0.00139
115.8,0.00336
116.2,0.00343
116.6,0.00279
117,0.0032
117.4,0.00284
117.8,0.00204
118.2,0.00168
118.6,0.00148
119,0.00103
119.4,0.0017
119.8,0.00163
119.99,0.00152