File: 2021/xrd/cif_files/ja408084j_si_004.csv
GENERAL$,
1,0
1.4,0.02101
1.8,0.01662
2.2,0.01586
2.6,0.01986
3,0.06031
3.4,0.11624
3.8,0.02801
4.2,0.0655
4.6,95.53335
5,0.0497
5.4,0.05258
5.8,0.07141
6.2,0.043
6.6,0.26828
7,0.01807
7.4,0.02219
7.8,0.18696
8.2,0.08068
8.6,0.442
9,0.03588
9.4,0.03392
9.8,0.52669
10.2,0.01986
10.6,0.00798
11,0.01731
11.4,0.05759
11.8,0.02146
12.2,0.00179
12.6,0.19581
13,0.50623
13.4,0.07852
13.8,1.67485
14.2,0.833
14.6,0.18607
15,0.00747
15.4,0.00502
15.8,0.00935
16.2,0.02045
16.6,0.05583
17,0.03474
17.4,0.00236
17.8,6.5E-4
18.2,0.01219
18.6,0.00841
19,0.4211
19.4,0.0122
19.8,0.054
20.2,0.00288
20.6,0.00688
21,0.0116
21.4,0.20796
21.8,0.00428
22.2,0.00223
22.6,0.00504
23,0.01612
23.4,0.22526
23.8,0.08054
24.2,0.0408
24.6,0.01063
25,0.04262
25.4,0.09905
25.8,0.00312
26.2,0.01539
26.6,0.0737
27,0.1556
27.4,0.01186
27.8,0.08788
28.2,0.33261
28.6,0.16765
29,0.00502
29.4,0.00737
29.8,0.16773
30.2,0.00977
30.6,0.05373
31,0.15092
31.4,0.01366
31.8,0.01743
32.2,0.02949
32.6,0.02307
33,0.07765
33.4,0.10119
33.8,0.03345
34.2,0.06657
34.6,0.00462
35,0.00667
35.4,0.04322
35.8,0.03406
36.2,0.00465
36.6,0.06771
37,0.06034
37.4,0.00456
37.8,0.03008
38.2,0.02476
38.6,0.0111
39,0.08177
39.4,0.0034
39.8,0.02364
40.2,0.02397
40.6,0.05745
41,0.04372
41.4,0.01859
41.8,0.03087
42.2,0.00673
42.6,0.01743
43,0.00868
43.4,0.01829
43.8,0.01828
44.2,0.01147
44.6,0.00945
45,0.00648
45.4,0.01621
45.8,0.02155
46.2,0.00389
46.6,0.01299
47,0.04657
47.4,0.01051
47.8,0.02064
48.2,0.06239
48.6,0.0126
49,0.01902
49.4,0.005
49.8,0.00603
50.2,0.0083
50.6,0.01525
51,0.02519
51.4,0.011
51.8,0.01019
52.2,0.00751
52.6,0.01023
53,0.00915
53.4,0.00527
53.8,0.00915
54.2,0.03926
54.6,0.02728
55,0.02276
55.4,0.0166
55.8,0.0246
56.2,0.01178
56.6,0.01914
57,0.01662
57.4,0.00475
57.8,0.02387
58.2,0.03368
58.6,0.01387
59,0.00956
59.4,0.02074
59.8,0.00556
60.2,0.00576
60.6,0.00913
61,0.00566
61.4,0.03312
61.8,0.018
62.2,0.01632
62.6,0.01148
63,0.00985
63.4,0.00723
63.8,0.01001
64.2,0.00254
64.6,0.00819
65,0.00436
65.4,0.01032
65.8,0.00318
66.2,0.0066
66.6,0.00352
67,0.00299
67.4,0.00169
67.8,0.01042
68.2,0.00264
68.6,0.00484
69,0.00458
69.4,0.00572
69.8,0.00539
70.2,0.00297
70.6,0.00157
71,0.00262
71.4,0.00207
71.8,0.00287
72.2,0.00358
72.6,0.0021
73,0.00287
73.4,0.00219
73.8,0.00235
74.2,0.00252
74.6,0.00233
75,0.00113
75.4,0.00219
75.8,0.00237
76.2,0.00222
76.6,0.00316
77,0.00206
77.4,0.00297
77.8,0.00235
78.2,0.00191
78.6,0.00272
79,0.0026
79.4,0.00334
79.8,0.00225
80.2,0.00356
80.6,0.00277
81,0.00167
81.4,0.00279
81.8,0.00491
82.2,0.00351
82.6,0.00315
83,0.0037
83.4,0.00262
83.8,0.00525
84.2,0.00352
84.6,0.00367
85,0.00247
85.4,0.00233
85.8,0.00264
86.2,0.00313
86.6,0.00383
87,0.00221
87.4,0.00454
87.8,0.0018
88.2,0.00315
88.6,0.00317
89,0.00284
89.4,0.0024
89.8,0.00201
90.2,0.00263
90.6,0.00406
91,0.00292
91.4,0.00151
91.8,0.00324
92.2,0.00249
92.6,0.00358
93,0.00161
93.4,0.00217
93.8,0.00202
94.2,0.00178
94.6,0.00173
95,0.00231
95.4,0.0022
95.8,0.00174
96.2,0.00224
96.6,0.00199
97,0.00161
97.4,0.00114
97.8,0.00169
98.2,0.00225
98.6,0.00147
99,0.00156
99.4,0.00142
99.8,0.00244
100.2,0.00153
100.6,0.00167
101,0.0013
101.4,0.00145
101.8,0.00118
102.2,0.00129
102.6,0.0011
103,7.6E-4
103.4,0.00109
103.8,0.00165
104.2,0.00137
104.6,9.7E-4
105,0.00153
105.4,0.00169
105.8,0.00146
106.2,0.00141
106.6,0.00139
107,0.00115
107.4,7.4E-4
107.8,5.1E-4
108.2,0.00109
108.6,0.00139
109,0.00121
109.4,6.8E-4
109.8,9.1E-4
110.2,9.5E-4
110.6,0.00136
111,0.00141
111.4,0.00111
111.8,9.6E-4
112.2,8.3E-4
112.6,6E-4
113,0.00102
113.4,0.00112
113.8,8.1E-4
114.2,6.7E-4
114.6,8.9E-4
115,8.8E-4
115.4,0.00103
115.8,0.00108
116.2,0.00105
116.6,0.00236
117,0.00224
117.4,0.00157
117.8,0.00176
118.2,0.0016
118.6,0.00133
119,9.5E-4
119.4,9.7E-4
119.8,6.8E-4
119.99,6.8E-4