File: 2021/xrd/cif_files/SC-009-C7SC03739B-s002.csv
2Î¸,I,
0,12
0,48
0.02609,24
0.08281,48
0,24
0,48
0.10508,48
0,24
0.13302,24
0,48
0.01347,24
2.9E-4,48
0,48
0,24
0.01484,48
0.01124,12
0.03428,48
0.04512,24
0.02623,24
0.00696,24
0.00481,24
0.02143,48
0,48
0,48
0,48
0,48
0,48
0.01587,24
0,24
0,48
0,48
5.5E-4,48
0,24
0,48
0.0023,48
6.2E-4,48
0,48
0,48
0,24
0,24
0,48
0.00262,48
0,48
0,48
0.0019,48
6.3E-4,48
0,48
0,24
0.00328,48
2.6E-4,48
8.7E-4,48
0,24
0.00651,24
0.00521,48
1E-4,24
0,48
0,48
0,48
3E-4,48
0.0025,48
0.00756,48
0,48
0,48
0.00687,24
0,48
0,48
0,48
0,48
0,24
1.9E-4,48
9E-5,48
1.4E-4,24
2.5E-4,24
0,24
0,48
0,48
0.0051,48
3.9E-4,48
0,48
0,48
4.1E-4,24
0.00197,48
3.6E-4,24
2.2E-4,48
7.7E-4,48
6.5E-4,48
0,48
0.00114,48
1.5E-4,48
3E-5,48
6.1E-4,48
0,48
0,48
5.1E-4,24
1.7E-4,24
0,48
0,48
1E-4,24
0.00626,48
0,24
8E-5,48
1.1E-4,48
7E-5,24
0,24
0,48
0,48
0,48
0,48
1E-5,48
2E-5,48
0.00495,48
1E-5,48
0,48
0,48
0,24
0,48
0,48
0,48
0,48
0,24
0.0015,48
0,24
0,48
0,48
1.7E-4,48
1.1E-4,48
5.9E-4,48
0,48
0.0023,24
0,48
0,48
0,48
1E-5,48
3E-5,48
2E-4,24
0.00136,48
1E-5,24
0,48
0,24
3E-4,48
0,48
0,48
0,48
0,24
0,48
0,24
0,48
0,48
0,48
0,48
0,48
9E-5,48
0,48
2E-5,24
0,48
7.7E-4,48
5E-5,48
0,48
0,48
3E-5,48
1E-5,48
3E-5,48
8.5E-4,48
1.7E-4,48
0,48
0,48
4.8E-4,48
5.4E-4,24
0,48
2E-5,48
0,48
0,48
0,48
0,48
4.1E-4,48
0,48
0,24
0,48
2.8E-4,24
4E-5,48
8E-5,48
0,48
2.4E-4,24
0,48
0,48
0,48
0,24
2E-5,48
3E-5,48
0,48
7E-5,48
7E-5,48
0,48
0,48
0,48
0,48
0,48
0,48
0,48
4E-5,48
0,48
2E-5,48
2.2E-4,48
0,48
1E-5,24
0,48
0,48
1E-4,24
4E-5,48
0,48
8E-5,48
3E-5,48
0.00194,48
0,48
0,24
0,48
5E-5,24
0,24
0,48
2.6E-4,24
0,24
0,48
0,48
5E-5,48
0,48
4E-5,24
2E-4,48
3E-5,48
0,48
5E-5,24
0,48
0,48
5.4E-4,48
0,48
1.4E-4,48
0,24
7E-5,24
1.8E-4,48
2.1E-4,48
0,24
0,48
0,48
8E-5,48
0,48
0,48
3E-4,48
0,48
0,48
0,48
1.8E-4,48
5E-5,48
0.00134,12
0,48
3.3E-4,48
0.00205,48
0,48
0,48
0,48
0,48
0,48
4E-5,48
5E-5,48
0,48
0,48
0,48
1E-5,48
2E-5,24
0,48
0,48
0,24
0,24
0,48
0,24
9E-5,48
0,48
8.4E-4,48
0,48
0,48
1E-5,48
1E-4,48
3.6E-4,48
4.9E-4,48
3.6E-4,48
1.1E-4,48
9.2E-4,48
2E-5,48
1E-5,48
0,48
0,48
0,48
0,48
3.2E-4,48
7.5E-4,48
1.6E-4,48
2.9E-4,48
0,24
0,24
2.3E-4,48
6.1E-4,48