File: 2021/xrd/cif_files/simulado_pcn224.csv
2theta,I
37.11768,12
0.13684,48
0.0993,24
1.7E-4,12
0.0035,24
0.04477,24
0.0012,48
0.03968,48
0.13431,24
0.00454,48
0.00778,48
0.04431,6
0.04554,48
1.9E-4,48
0.04129,48
0.02359,24
0.00618,24
0.00321,48
0.00338,48
0.02901,24
0.01084,24
0.03654,48
0.00235,48
0.05484,12
0.00547,48
0.00863,48
0.00282,48
6E-5,48
0.00964,48
1E-4,48
1.9E-4,48
0.05497,48
0.00206,48
4.6E-4,24
0.00255,48
0.01141,48
0.0119,24
0.01738,48
0.00319,24
0,48
0.00502,48
0.00424,48
0.00965,48
9.5E-4,24
0.00806,48
0.00542,48
4E-4,24
0.00125,48
0.00287,48
0.0147,48
0.00554,48
9E-5,24
0.00365,48
0.01106,24
0.00313,48
0.00505,48
0.00167,24
0.05617,48
9.7E-4,48
5.8E-4,48
0.03223,24
9E-4,48
0.01077,48
0.00303,24
0.01541,48
0.00579,48
0.0021,48
7E-5,48
0.0011,48
1E-4,24
4.2E-4,48
0.00242,48
1.9E-4,48
0.00695,24
7.9E-4,48
2.5E-4,24
6.8E-4,24
2.8E-4,48
6E-4,48
4.8E-4,24
7.1E-4,48
6.4E-4,48
3.6E-4,24
0.00456,48
0.00348,48
0.00379,48
0.00177,48
6.7E-4,24
0.00137,48
0,48
0.00203,48
0.00393,48
0.00116,24
0.00137,48
0.00135,48
2E-5,48
2.3E-4,48
1E-5,48
0.00114,48
1.4E-4,48
0.00159,48
3.8E-4,48
7E-5,24
0,48
1.9E-4,48
0.00158,48
0.00122,48
6.6E-4,48
6.5E-4,48
6.7E-4,48
5.9E-4,48
6E-5,48
5.8E-4,24
0.00134,48
0.00751,48
9E-5,24
0.00252,48
8E-4,24
0.00254,48
1E-3,48
2.8E-4,48
0.00253,48
0.00156,48
1E-5,48
7.1E-4,48
1.6E-4,48
0.00124,48
5E-4,48
0,12
0.0019,48
2.7E-4,48
0.00503,24
2.7E-4,48
3.4E-4,48
0.00153,48
0.00344,48
0.00302,48
9E-5,24
0.00241,48
1.5E-4,48
8.5E-4,48
1.3E-4,48
0.00105,48
5.2E-4,48
1.6E-4,48
0.00101,24
0.00633,48
6.9E-4,48
0.00332,48
2.8E-4,48
0.00232,48
6.2E-4,48
0.00171,48
2.7E-4,48
0.00141,48
7E-5,48
5.2E-4,48
2E-5,48
0.00446,48
1E-5,24
3.1E-4,48
1.8E-4,48
8.4E-4,48
0.00567,48
2.1E-4,48
2.3E-4,48
5E-4,48
8E-5,48
2.4E-4,48
1E-3,48
0,48
4.3E-4,48
0.00318,48
1E-5,48
4E-5,48
1E-4,48
0.0034,48
4E-5,24
0.00311,48
1E-5,24
6E-4,48
0.00221,48
0.00116,48
6.3E-4,48
1.6E-4,24
5.8E-4,48
0.00552,48
7E-5,48
2.6E-4,48
0,48
0.00108,48
1E-4,24
1.4E-4,24
2.6E-4,48
3E-5,48
3E-4,48
0.00168,48
3.1E-4,48
3E-5,48
8.6E-4,48
3.9E-4,48
0.00109,24
6.6E-4,48
3E-5,48
1.3E-4,48
6.3E-4,24
2.5E-4,48
2.7E-4,48
0.00314,48
2.1E-4,48
1.6E-4,48
1.7E-4,48
9.1E-4,48
1E-5,24
5E-4,48
1.9E-4,48
2.9E-4,48
5E-5,48
0,48
1E-5,48
1E-4,48
1E-5,48
0,48
0.0029,48
1.6E-4,48
1E-5,48
5E-5,48
1E-5,48
0.00107,48
3.5E-4,48
4E-5,48
2E-5,48
0.00263,48
9.6E-4,48
0,48
4.1E-4,48
1.9E-4,48
0.00242,48
2E-5,48
9.6E-4,48
9E-4,48
3.9E-4,24
1E-5,48
0,24
0,48
7E-5,48
1.5E-4,48
3.4E-4,48
7.3E-4,48
3.3E-4,48
8.9E-4,24
5.2E-4,24
6.3E-4,48
0.00172,48
3.1E-4,48
1.3E-4,48
2E-5,48
8.5E-4,24
4.1E-4,48
3E-4,48
5E-5,48
1E-5,48
1.8E-4,48
1.1E-4,48
2.5E-4,48
1E-5,48
6E-5,48
8.9E-4,48
8.1E-4,48
2E-5,48
1.8E-4,48
0,48
0,48
0.00118,24
3.2E-4,48
7E-5,48
9E-5,48
0.00121,48
0,48
1E-4,24
1.5E-4,48
6E-5,24
4E-5,48
1.8E-4,48
2.7E-4,24
1.5E-4,48
5.3E-4,48
0.00328,48
6.5E-4,48
1.4E-4,48
0.00161,48
1.4E-4,48
1.4E-4,48
2.1E-4,48
1.2E-4,24