File: 2021/xrd/baseline_correction/mof170.ASC
  4.010        0
  4.140    -4657
  4.270      697
  4.400    25656
  4.530   124344
  4.660    19068
  4.790     2091
  4.920      155
  5.050     -163
  5.180       37
  5.310       -2
  5.440      -83
  5.570      254
  5.700      114
  5.830     -146
  5.960     -121
  6.090      -11
  6.220     2355
  6.350    14883
  6.480    37051
  6.610     3532
  6.740     1160
  6.870      657
  7.000      105
  7.130      152
  7.260       40
  7.390       32
  7.520      159
  7.650     1486
  7.780     9017
  7.910    36880
  8.040     3400
  8.170      804
  8.300      225
  8.430       -1
  8.560      109
  8.690     -135
  8.820      225
  8.950     1578
  9.080    12553
  9.210     4832
  9.340      565
  9.470      269
  9.600       33
  9.730      215
  9.860      114
  9.990       96
 10.120      504
 10.250     1389
 10.380      184
 10.510       81
 10.640       12
 10.770       30
 10.900      122
 11.030      959
 11.160     8713
 11.290     1899
 11.420      124
 11.550     -175
 11.680     -120
 11.810     -125
 11.940     -148
 12.070      -99
 12.200      -57
 12.330      -73
 12.460      -20
 12.590       29
 12.720     -135
 12.850      -98
 12.980       65
 13.110       32
 13.240       21
 13.370        5
 13.500      273
 13.630     2752
 13.760     7600
 13.890      437
 14.020     -149
 14.150      -29
 14.280     -114
 14.410     -100
 14.540       10
 14.670      -63
 14.800      103
 14.930       28
 15.060       95
 15.190        1
 15.320     -104
 15.450       70
 15.580        5
 15.710       29
 15.840      539
 15.970       43
 16.100       60
 16.230       86
 16.360      -67
 16.490       27
 16.620       44
 16.750      -73
 16.880       51
 17.010       40
 17.140      205
 17.270      209
 17.400      -94
 17.530      -74
 17.660       61
 17.790       32
 17.920        8
 18.050       -3
 18.180       22
 18.310      467
 18.440       36
 18.570      -41
 18.700      -15
 18.830      460
 18.960     1097
 19.090      106
 19.220     -121
 19.350       65
 19.480      113
 19.610     -103
 19.740       -3
 19.870     -144
 20.000      341
 20.130       -4
 20.260       56
 20.390      -35
 20.520     1218
 20.650       10
 20.780      -70
 20.910      149
 21.040     2655
 21.170      368
 21.300       21
 21.430      -48
 21.560      831
 21.690       82
 21.820     -106
 21.950      -65
 22.080      -55
 22.210      -52
 22.340       -9
 22.470      691
 22.600      541
 22.730       38
 22.860       -5
 22.990      207
 23.120      -31
 23.250      137
 23.380      865
 23.510     1049
 23.640       74
 23.770      202
 23.900      104
 24.030        0
 24.160       42
 24.290      113
 24.420        0
 24.550       22
 24.680      220
 24.810      561
 24.940      194
 25.070       74
 25.200      263
 25.330      167
 25.460      -90
 25.590       93
 25.720        1
 25.850       76
 25.980       23
 26.110      -45
 26.240      -45
 26.370      109
 26.500       32
 26.630       54
 26.760      168
 26.890      675
 27.020       51
 27.150     -100
 27.280      526
 27.410       42
 27.540      -73
 27.670       72
 27.800     -115
 27.930      219
 28.060      901
 28.190      163
 28.320       43
 28.450      327
 28.580       40
 28.710     -114
 28.840      -13
 28.970      -59
 29.100      -41
 29.230       69
 29.360      -33
 29.490      278
 29.620      837
 29.750       83
 29.880     -147
 30.010     -120
 30.140       27
 30.270      179
 30.400       91
 30.530        5
 30.660      411
 30.790      159
 30.920       21
 31.050       61
 31.180      -62
 31.310       27
 31.440       93
 31.570       92
 31.700       15
 31.830      -22
 31.960      -49
 32.090       31
 32.220       -7
 32.350       22
 32.480      -15
 32.610       40
 32.740      479
 32.870      135
 33.000       31
 33.130      106
 33.260      102
 33.390      -30
 33.520       36
 33.650       -7
 33.780      -40
 33.910      -32
 34.040      171
 34.170      184
 34.300      -28
 34.430       59
 34.560     -124
 34.690       21
 34.820       -8
 34.950       78
 35.080       70
 35.210     -109
 35.340       67
 35.470     -181
 35.600      151
 35.730        8
 35.860       21
 35.990      104
 36.120       18
 36.250       39
 36.380       89
 36.510      -27
 36.640       12
 36.770      -48
 36.900       26
 37.030      200
 37.160      -48
 37.290      125
 37.420       82
 37.550       95
 37.680        9
 37.810      130
 37.940      -23
 38.070       20
 38.200      -19
 38.330      -61
 38.460      -40
 38.590       62
 38.720      203
 38.850      -26
 38.980      -55
 39.110       34
 39.240       24
 39.370       39
 39.500       83
 39.630      -30
 39.760       95
 39.890      112
 39.968        1