File: 2021/xrd/baseline_correction/mof170.CSV
No.,Pos. [°2Th.],Iobs [cts],Icalc [cts],Iback [cts],CT [s],ESD
1,4.0099,0.0000, , ,195.2635,255.0640
7,4.1659,-4648.75, , ,195.2635,237.4517
13,4.3219,7160.1, , ,195.2635,253.1411
19,4.4779,70276.9, , ,195.2635,350.7126
25,4.6339,36761.7, , ,195.2635,292.0379
31,4.7899,2090.74, , ,195.2635,215.2465
37,4.9459,49.0297, , ,195.2635,199.7975
43,5.1019,-351.5861, , ,195.2635,190.9444
49,5.2579,109.9083, , ,195.2635,186.5938
55,5.4139,18.1884, , ,195.2635,183.2381
61,5.5699,254.3482, , ,195.2635,180.8397
67,5.7259,97.4094, , ,195.2635,178.2360
73,5.8819,97.1220, , ,195.2635,176.9777
79,6.0379,22.6420, , ,195.2635,176.9034
85,6.1939,1784.51, , ,195.2635,181.7387
91,6.3499,14883.4, , ,195.2635,214.5326
97,6.5059,20774.2, , ,195.2635,227.6211
103,6.6619,2313.12, , ,195.2635,182.1286
109,6.8179,450.0320, , ,195.2635,176.2167
115,6.9739,390.1944, , ,195.2635,174.7451
121,7.1299,152.1354, , ,195.2635,172.4598
127,7.2859,-143.6099, , ,195.2635,169.6832
133,7.4419,-183.5378, , ,195.2635,168.7426
139,7.5979,741.3836, , ,195.2635,170.4199
145,7.7539,6076.37, , ,195.2635,184.2396
151,7.9099,36879.9, , ,195.2635,253.6021
157,8.0659,2456.67, , ,195.2635,171.4045
163,8.2219,359.5621, , ,195.2635,163.3811
169,8.3779,41.5468, , ,195.2635,159.9651
175,8.5339,-5.4044, , ,195.2635,157.6407
181,8.6899,-135.4040, , ,195.2635,155.3209
187,8.8459,454.3173, , ,195.2635,156.4597
193,9.0019,3775.75, , ,195.2635,165.8255
199,9.1579,17324.5, , ,195.2635,201.6817
205,9.3139,892.1789, , ,195.2635,154.5052
211,9.4699,268.6556, , ,195.2635,151.0253
217,9.6259,-61.8658, , ,195.2635,148.2233
223,9.7819,159.1955, , ,195.2635,147.6365
229,9.9379,21.3305, , ,195.2635,145.8061
235,10.0939,332.8224, , ,195.2635,145.4891
241,10.2499,1388.74, , ,195.2635,147.7131
247,10.4059,12.6687, , ,195.2635,141.3117
253,10.5619,-60.4744, , ,195.2635,139.1098
259,10.7179,-61.7299, , ,195.2635,138.3556
265,10.8739,87.5541, , ,195.2635,138.3209
271,11.0299,958.7698, , ,195.2635,141.0466
277,11.1859,10710.5, , ,195.2635,171.4800
283,11.3419,741.6911, , ,195.2635,138.5502
289,11.4979,-111.5541, , ,195.2635,134.5453
295,11.6539,145.9803, , ,195.2635,134.3428
301,11.8099,-124.9166, , ,195.2635,132.0723
307,11.9659,61.9955, , ,195.2635,131.4306
313,12.1219,-183.1888, , ,195.2635,129.9826
319,12.2779,-9.0494, , ,195.2635,129.8677
325,12.4339,54.2672, , ,195.2635,129.0514
331,12.5899,28.7014, , ,195.2635,128.2941
337,12.7459,-71.3066, , ,195.2635,126.9909
343,12.9019,-25.0730, , ,195.2635,126.0037
349,13.0579,135.0187, , ,195.2635,125.8929
355,13.2139,-1.7792, , ,195.2635,124.9008
361,13.3699,4.7260, , ,195.2635,124.7827
367,13.5259,438.9054, , ,195.2635,126.6736
373,13.6819,6543.02, , ,195.2635,148.7894
379,13.8379,1371.4, , ,195.2635,130.0052
385,13.9939,114.6512, , ,195.2635,124.8171
391,14.1499,-28.6066, , ,195.2635,123.7446
397,14.3059,49.6974, , ,195.2635,123.3276
403,14.4619,68.9278, , ,195.2635,122.7284
409,14.6179,48.9422, , ,195.2635,122.0913
415,14.7739,-33.0847, , ,195.2635,121.3215
421,14.9299,28.3509, , ,195.2635,120.8926
427,15.0859,-28.6037, , ,195.2635,120.2223
433,15.2419,-60.2479, , ,195.2635,119.9073
439,15.3979,-51.7092, , ,195.2635,119.0670
445,15.5539,-25.6675, , ,195.2635,118.8683
451,15.7099,28.9148, , ,195.2635,119.3604
457,15.8659,567.6406, , ,195.2635,121.4728
463,16.0219,-89.1786, , ,195.2635,118.6121
469,16.1779,-26.6257, , ,195.2635,118.7492
475,16.3339,-32.1894, , ,195.2635,118.5460
481,16.4899,27.4456, , ,195.2635,118.9486
487,16.6459,-72.0164, , ,195.2635,119.0125
493,16.8019,-43.1859, , ,195.2635,118.9152
499,16.9579,-2.2293, , ,195.2635,118.9640
505,17.1139,131.0705, , ,195.2635,119.4951
511,17.2699,208.9023, , ,195.2635,119.7925
517,17.4259,20.7836, , ,195.2635,119.0747
523,17.5819,38.2796, , ,195.2635,119.3159
529,17.7379,59.3586, , ,195.2635,119.0463
535,17.8939,-30.0595, , ,195.2635,118.5859
541,18.0499,-3.4555, , ,195.2635,118.8888
547,18.2059,152.6091, , ,195.2635,119.9386
553,18.3619,533.6122, , ,195.2635,121.9055
559,18.5179,37.5847, , ,195.2635,120.2480
565,18.6739,-147.1557, , ,195.2635,119.9063
571,18.8299,459.7313, , ,195.2635,122.5074
577,18.9859,690.4987, , ,195.2635,123.2213
583,19.1419,47.3151, , ,195.2635,120.3536
589,19.2979,50.2238, , ,195.2635,120.5040
595,19.4539,113.5697, , ,195.2635,121.2706
601,19.6099,-103.0052, , ,195.2635,120.8801
607,19.7659,119.0137, , ,195.2635,122.2689
613,19.9219,185.0496, , ,195.2635,122.9839
619,20.0779,171.0696, , ,195.2635,123.3710
625,20.2339,78.6899, , ,195.2635,123.4694
631,20.3899,-35.0077, , ,195.2635,123.5111
637,20.5459,1280.03, , ,195.2635,128.5873
643,20.7019,-100.2398, , ,195.2635,122.9597
649,20.8579,7.3630, , ,195.2635,123.2532
655,21.0139,2194.08, , ,195.2635,131.6919
661,21.1699,368.0795, , ,195.2635,124.4243
667,21.3259,105.6238, , ,195.2635,123.2218
673,21.4819,537.9821, , ,195.2635,124.5551
679,21.6379,237.2461, , ,195.2635,122.9278
685,21.7939,-28.9099, , ,195.2635,121.4211
691,21.9499,-65.3704, , ,195.2635,121.5125
697,22.1059,-48.7049, , ,195.2635,121.7674
703,22.2619,85.1793, , ,195.2635,122.4466
709,22.4179,361.8046, , ,195.2635,123.5549
715,22.5739,727.7180, , ,195.2635,125.0109
721,22.7299,37.9180, , ,195.2635,122.2044
727,22.8859,36.3844, , ,195.2635,121.9906
733,23.0419,116.9854, , ,195.2635,122.1133
739,23.1979,-16.7091, , ,195.2635,121.3561
745,23.3539,558.8427, , ,195.2635,123.0861
751,23.5099,1049.08, , ,195.2635,124.4498
757,23.6659,25.7636, , ,195.2635,119.6318
763,23.8219,7.7879, , ,195.2635,119.1852
769,23.9779,166.8775, , ,195.2635,119.4803
775,24.1339,17.1814, , ,195.2635,118.4786
781,24.2899,113.0449, , ,195.2635,118.7450
787,24.4459,79.0933, , ,195.2635,118.4642
793,24.6019,-28.6901, , ,195.2635,117.8699
799,24.7579,595.1200, , ,195.2635,120.6004
805,24.9139,-12.4010, , ,195.2635,118.1705
811,25.0699,74.4542, , ,195.2635,118.6527
817,25.2259,491.5967, , ,195.2635,120.0289
823,25.3819,-30.4593, , ,195.2635,117.4573
829,25.5379,23.2386, , ,195.2635,117.3083
835,25.6939,59.0299, , ,195.2635,117.4267
841,25.8499,75.9593, , ,195.2635,117.6490
847,26.0059,-17.2387, , ,195.2635,117.5872
853,26.1619,87.5681, , ,195.2635,117.7323
859,26.3179,95.9046, , ,195.2635,117.6205
865,26.4739,188.8203, , ,195.2635,118.0204
871,26.6299,53.9444, , ,195.2635,117.4533
877,26.7859,248.1696, , ,195.2635,118.3336
883,26.9419,452.2679, , ,195.2635,119.2991
889,27.0979,-115.4263, , ,195.2635,117.0039
895,27.2539,495.3338, , ,195.2635,119.4125
901,27.4099,41.7503, , ,195.2635,117.0374
907,27.5659,-3.5462, , ,195.2635,116.2832
913,27.7219,36.4370, , ,195.2635,115.8926
919,27.8779,9.0425, , ,195.2635,115.2087
925,28.0339,902.8069, , ,195.2635,118.6457
931,28.1899,163.2194, , ,195.2635,115.0966
937,28.3459,-37.4074, , ,195.2635,113.8270
943,28.5019,134.1631, , ,195.2635,114.2986
949,28.6579,-130.6556, , ,195.2635,112.5523
955,28.8139,50.9653, , ,195.2635,112.4765
961,28.9699,-58.8622, , ,195.2635,111.7846
967,29.1259,17.9603, , ,195.2635,112.1664
973,29.2819,-41.5578, , ,195.2635,112.1804
979,29.4379,-63.9951, , ,195.2635,112.0268
985,29.5939,885.0169, , ,195.2635,115.8923
991,29.7499,82.8895, , ,195.2635,111.8253
997,29.9059,-50.6157, , ,195.2635,110.6679
1003,30.0619,-161.4880, , ,195.2635,109.4007
1009,30.2179,-39.0190, , ,195.2635,108.9907
1015,30.3739,-31.6928, , ,195.2635,108.5463
1021,30.5299,5.1724, , ,195.2635,108.2428
1027,30.6859,351.4801, , ,195.2635,109.3686
1033,30.8419,114.8226, , ,195.2635,107.8123
1039,30.9979,28.2936, , ,195.2635,107.1461
1045,31.1539,24.2925, , ,195.2635,107.0714
1051,31.3099,26.8156, , ,195.2635,106.2959
1057,31.4659,103.3861, , ,195.2635,105.8649
1063,31.6219,9.1019, , ,195.2635,104.6188
1069,31.7779,-11.4610, , ,195.2635,103.8422
1075,31.9339,-38.6589, , ,195.2635,103.5664
1081,32.0899,31.4588, , ,195.2635,104.2951
1087,32.2459,-12.5820, , ,195.2635,103.4928
1093,32.4019,19.6816, , ,195.2635,103.0648
1099,32.5579,-33.7467, , ,195.2635,102.2265
1105,32.7139,423.5953, , ,195.2635,104.3468
1111,32.8699,135.1521, , ,195.2635,102.5800
1117,33.0259,30.3000, , ,195.2635,101.4041
1123,33.1819,-84.4226, , ,195.2635,100.1653
1129,33.3379,8.1787, , ,195.2635,100.1574
1135,33.4939,-23.2164, , ,195.2635,99.7336
1141,33.6499,-7.2624, , ,195.2635,100.0670
1147,33.8059,-10.8563, , ,195.2635,99.9590
1153,33.9619,26.7715, , ,195.2635,99.7134
1159,34.1179,304.6342, , ,195.2635,100.2429
1165,34.2739,20.1485, , ,195.2635,97.9395
1171,34.4299,58.6387, , ,195.2635,97.2555
1177,34.5859,-70.8492, , ,195.2635,96.0060
1183,34.7419,-64.6569, , ,195.2635,95.7079
1189,34.8979,-15.4455, , ,195.2635,95.8882
1195,35.0539,251.0824, , ,195.2635,97.5897
1201,35.2099,-109.3027, , ,195.2635,95.7289
1207,35.3659,-59.6973, , ,195.2635,95.6677
1213,35.5219,-15.7375, , ,195.2635,95.5803
1219,35.6779,90.8954, , ,195.2635,95.8205
1225,35.8339,62.2431, , ,195.2635,95.3533
1231,35.9899,103.9704, , ,195.2635,94.2654
1237,36.1459,-67.0785, , ,195.2635,92.7699
1243,36.3019,13.3288, , ,195.2635,93.3666
1249,36.4579,-5.7776, , ,195.2635,92.4674
1255,36.6139,57.7457, , ,195.2635,92.1109
1261,36.7699,-47.5312, , ,195.2635,90.9311
1267,36.9259,-10.2506, , ,195.2635,90.8648
1273,37.0819,33.1062, , ,195.2635,90.8319
1279,37.2379,-63.9644, , ,195.2635,90.0224
1285,37.3939,35.2991, , ,195.2635,90.7302
1291,37.5499,94.5607, , ,195.2635,91.2135
1297,37.7059,-49.0437, , ,195.2635,90.5812
1303,37.8619,41.0028, , ,195.2635,90.2090
1309,38.0179,-185.7341, , ,195.2635,88.2285
1315,38.1739,-6.4917, , ,195.2635,88.6990
1321,38.3299,-60.6797, , ,195.2635,88.6866
1327,38.4859,7.9068, , ,195.2635,89.0313
1333,38.6419,111.0751, , ,195.2635,89.2361
1339,38.7979,93.8521, , ,195.2635,88.7648
1345,38.9539,-53.8729, , ,195.2635,87.8301
1351,39.1099,33.8334, , ,195.2635,88.5089
1357,39.2659,54.9013, , ,195.2635,88.6354
1363,39.4219,43.8612, , ,195.2635,88.6128
1369,39.5779,46.5754, , ,195.2635,88.7000
1375,39.7339,70.3296, , ,195.2635,88.9056
1381,39.8899,111.8866, , ,195.2635,89.2104
1384,39.9679,1.0623, , ,195.2635,88.6111