File: 2021/xrd/baseline_correction/mof230.CSV
No.,Pos. [°2Th.],Iobs [cts],Icalc [cts],Iback [cts],CT [s],ESD
1,4.0099,0.0000, , ,195.2635,261.3343
7,4.1659,-6921.19, , ,195.2635,240.6666
13,4.3219,-5213.29, , ,195.2635,236.9125
19,4.4779,8532.58, , ,195.2635,257.5379
25,4.6339,46286.5, , ,195.2635,317.0681
31,4.7899,5320.31, , ,195.2635,236.5830
37,4.9459,158.4821, , ,195.2635,217.1831
43,5.1019,-103.6789, , ,195.2635,209.7959
49,5.2579,-41.9123, , ,195.2635,204.1456
55,5.4139,6.6259, , ,195.2635,199.5360
61,5.5699,78.3676, , ,195.2635,196.1930
67,5.7259,-154.3042, , ,195.2635,192.6838
73,5.8819,-51.0789, , ,195.2635,190.6854
79,6.0379,-26.8178, , ,195.2635,189.2367
85,6.1939,194.7873, , ,195.2635,188.7789
91,6.3499,3823.93, , ,195.2635,197.6159
97,6.5059,15976.1, , ,195.2635,225.6458
103,6.6619,3307.4, , ,195.2635,194.7345
109,6.8179,1426.36, , ,195.2635,188.8837
115,6.9739,1527.05, , ,195.2635,188.1869
121,7.1299,1069.56, , ,195.2635,185.8917
127,7.2859,923.6085, , ,195.2635,184.3124
133,7.4419,672.1817, , ,195.2635,182.2194
139,7.5979,406.0985, , ,195.2635,179.9475
145,7.7539,1742.31, , ,195.2635,181.9880
151,7.9099,10799.3, , ,195.2635,203.6867
157,8.0659,4380.39, , ,195.2635,185.3078
163,8.2219,357.6165, , ,195.2635,171.8826
169,8.3779,150.1964, , ,195.2635,168.7884
175,8.5339,76.8319, , ,195.2635,166.2112
181,8.6899,15.0962, , ,195.2635,163.8020
187,8.8459,84.7649, , ,195.2635,162.2773
193,9.0019,1038.38, , ,195.2635,163.3844
199,9.1579,8065.8, , ,195.2635,181.9411
205,9.3139,1816.25, , ,195.2635,161.9681
211,9.4699,-26.3763, , ,195.2635,154.0956
217,9.6259,-0.0048, , ,195.2635,151.9868
223,9.7819,33.5170, , ,195.2635,150.5684
229,9.9379,19.3683, , ,195.2635,149.1600
235,10.0939,-112.2332, , ,195.2635,147.5255
241,10.2499,1117.55, , ,195.2635,150.1673
247,10.4059,166.5035, , ,195.2635,145.4505
253,10.5619,-4.8751, , ,195.2635,143.3218
259,10.7179,-68.1284, , ,195.2635,141.9362
265,10.8739,-236.2529, , ,195.2635,140.1264
271,11.0299,260.2609, , ,195.2635,140.6388
277,11.1859,3189.84, , ,195.2635,149.5198
283,11.3419,1131.31, , ,195.2635,141.1405
289,11.4979,75.5458, , ,195.2635,135.8806
295,11.6539,-6.5666, , ,195.2635,134.4474
301,11.8099,258.8280, , ,195.2635,134.5443
307,11.9659,-60.6688, , ,195.2635,132.7002
313,12.1219,34.9614, , ,195.2635,132.2408
319,12.2779,-80.8429, , ,195.2635,130.9904
325,12.4339,35.9797, , ,195.2635,130.6368
331,12.5899,-57.1669, , ,195.2635,129.3194
337,12.7459,76.2604, , ,195.2635,129.0837
343,12.9019,118.4597, , ,195.2635,128.7069
349,13.0579,58.2012, , ,195.2635,127.9292
355,13.2139,-146.0102, , ,195.2635,126.8358
361,13.3699,17.3005, , ,195.2635,127.4414
367,13.5259,22.7425, , ,195.2635,127.3600
373,13.6819,2306.44, , ,195.2635,135.7954
379,13.8379,1796.1, , ,195.2635,133.5233
385,13.9939,-42.2311, , ,195.2635,126.0498
391,14.1499,-170.5626, , ,195.2635,124.9684
397,14.3059,49.2849, , ,195.2635,125.1091
403,14.4619,-46.1679, , ,195.2635,123.9845
409,14.6179,128.0116, , ,195.2635,124.0995
415,14.7739,-56.3095, , ,195.2635,122.9215
421,14.9299,70.3433, , ,195.2635,123.2248
427,15.0859,-105.2886, , ,195.2635,122.2349
433,15.2419,52.0166, , ,195.2635,122.5399
439,15.3979,-8.1587, , ,195.2635,121.9556
445,15.5539,-88.7044, , ,195.2635,121.3451
451,15.7099,-16.9366, , ,195.2635,121.4210
457,15.8659,275.6215, , ,195.2635,122.4294
463,16.0219,38.6437, , ,195.2635,121.2655
469,16.1779,34.7597, , ,195.2635,121.0568
475,16.3339,-60.1098, , ,195.2635,120.7196
481,16.4899,189.0551, , ,195.2635,121.6527
487,16.6459,63.1973, , ,195.2635,120.8892
493,16.8019,-88.2358, , ,195.2635,120.0143
499,16.9579,-62.2885, , ,195.2635,120.0613
505,17.1139,148.6131, , ,195.2635,121.0604
511,17.2699,70.3630, , ,195.2635,120.8609
517,17.4259,14.9872, , ,195.2635,120.5750
523,17.5819,-40.7202, , ,195.2635,120.1053
529,17.7379,-46.1874, , ,195.2635,120.1658
535,17.8939,-107.4590, , ,195.2635,119.9217
541,18.0499,17.4969, , ,195.2635,120.3806
547,18.2059,-5.2745, , ,195.2635,120.1668
553,18.3619,258.7066, , ,195.2635,121.1420
559,18.5179,-25.3882, , ,195.2635,119.8441
565,18.6739,86.1238, , ,195.2635,120.6377
571,18.8299,364.3165, , ,195.2635,121.9446
577,18.9859,543.2633, , ,195.2635,122.6693
583,19.1419,-145.5762, , ,195.2635,119.8218
589,19.2979,-3.8105, , ,195.2635,120.3489
595,19.4539,143.5097, , ,195.2635,120.8408
601,19.6099,43.1160, , ,195.2635,120.3056
607,19.7659,-103.7563, , ,195.2635,119.8620
613,19.9219,99.6346, , ,195.2635,121.1595
619,20.0779,60.3816, , ,195.2635,121.4484
625,20.2339,3.4722, , ,195.2635,121.5208
631,20.3899,36.0273, , ,195.2635,121.8176
637,20.5459,557.8369, , ,195.2635,123.8877
643,20.7019,61.7857, , ,195.2635,121.8152
649,20.8579,-21.0589, , ,195.2635,121.4205
655,21.0139,921.7884, , ,195.2635,124.8297
661,21.1699,275.6698, , ,195.2635,121.7908
667,21.3259,-4.5369, , ,195.2635,120.2059
673,21.4819,130.8570, , ,195.2635,120.5329
679,21.6379,239.0804, , ,195.2635,120.7466
685,21.7939,33.1191, , ,195.2635,119.6542
691,21.9499,62.4111, , ,195.2635,119.5341
697,22.1059,13.2536, , ,195.2635,119.0851
703,22.2619,14.2209, , ,195.2635,118.8454
709,22.4179,330.3189, , ,195.2635,120.2705
715,22.5739,392.8503, , ,195.2635,120.6324
721,22.7299,-61.6387, , ,195.2635,118.8375
727,22.8859,18.9811, , ,195.2635,118.9943
733,23.0419,133.8604, , ,195.2635,119.2946
739,23.1979,48.5566, , ,195.2635,118.7542
745,23.3539,441.0341, , ,195.2635,120.2790
751,23.5099,589.8025, , ,195.2635,120.6806
757,23.6659,29.4103, , ,195.2635,118.0144
763,23.8219,-81.1828, , ,195.2635,117.2212
769,23.9779,-76.5877, , ,195.2635,116.9220
775,24.1339,69.8083, , ,195.2635,117.2340
781,24.2899,45.4369, , ,195.2635,116.8165
787,24.4459,-78.6880, , ,195.2635,116.1693
793,24.6019,22.6607, , ,195.2635,116.6904
799,24.7579,254.0250, , ,195.2635,117.7088
805,24.9139,81.2736, , ,195.2635,117.0040
811,25.0699,82.1147, , ,195.2635,117.0389
817,25.2259,136.2079, , ,195.2635,117.1447
823,25.3819,47.3542, , ,195.2635,116.4532
829,25.5379,101.5700, , ,195.2635,116.1877
835,25.6939,80.7150, , ,195.2635,115.7816
841,25.8499,26.9547, , ,195.2635,115.5896
847,26.0059,2.5686, , ,195.2635,115.8817
853,26.1619,-98.2871, , ,195.2635,115.6361
859,26.3179,69.6986, , ,195.2635,116.5262
865,26.4739,21.4297, , ,195.2635,116.4621
871,26.6299,-65.4088, , ,195.2635,116.2322
877,26.7859,26.5746, , ,195.2635,116.7186
883,26.9419,268.2483, , ,195.2635,117.7890
889,27.0979,72.5667, , ,195.2635,116.9953
895,27.2539,135.7964, , ,195.2635,117.1059
901,27.4099,40.8344, , ,195.2635,116.3393
907,27.5659,-60.0578, , ,195.2635,115.6688
913,27.7219,-78.3580, , ,195.2635,115.3024
919,27.8779,114.8769, , ,195.2635,115.8010
925,28.0339,565.1667, , ,195.2635,117.3975
931,28.1899,177.9983, , ,195.2635,115.2736
937,28.3459,19.7767, , ,195.2635,113.9902
943,28.5019,55.3182, , ,195.2635,113.9707
949,28.6579,15.1608, , ,195.2635,113.7739
955,28.8139,64.2278, , ,195.2635,114.1237
961,28.9699,-53.2715, , ,195.2635,113.3669
967,29.1259,57.5688, , ,195.2635,113.7141
973,29.2819,-31.3932, , ,195.2635,113.2811
979,29.4379,-5.4417, , ,195.2635,113.1396
985,29.5939,298.6132, , ,195.2635,114.0370
991,29.7499,93.2422, , ,195.2635,112.5022
997,29.9059,23.8866, , ,195.2635,111.5574
1003,30.0619,51.7219, , ,195.2635,111.2013
1009,30.2179,75.8301, , ,195.2635,110.9857
1015,30.3739,-48.8616, , ,195.2635,110.0718
1021,30.5299,38.9399, , ,195.2635,110.0088
1027,30.6859,88.8531, , ,195.2635,109.6625
1033,30.8419,-4.9575, , ,195.2635,108.6556
1039,30.9979,97.4665, , ,195.2635,108.6921
1045,31.1539,59.2304, , ,195.2635,108.2254
1051,31.3099,157.8434, , ,195.2635,108.3898
1057,31.4659,-26.1896, , ,195.2635,107.1190
1063,31.6219,-25.6215, , ,195.2635,106.5757
1069,31.7779,-7.5896, , ,195.2635,106.4475
1075,31.9339,38.3234, , ,195.2635,106.4503
1081,32.0899,28.8308, , ,195.2635,106.1924
1087,32.2459,-81.5567, , ,195.2635,105.0069
1093,32.4019,-62.7906, , ,195.2635,104.6815
1099,32.5579,-3.1353, , ,195.2635,104.8039
1105,32.7139,160.6905, , ,195.2635,105.1128
1111,32.8699,-51.0870, , ,195.2635,103.6239
1117,33.0259,113.8612, , ,195.2635,103.9416
1123,33.1819,74.3776, , ,195.2635,102.9581
1129,33.3379,97.6639, , ,195.2635,102.6174
1135,33.4939,-69.1763, , ,195.2635,101.6898
1141,33.6499,111.9897, , ,195.2635,102.3262
1147,33.8059,64.5961, , ,195.2635,101.8427
1153,33.9619,74.9160, , ,195.2635,101.6411
1159,34.1179,73.8639, , ,195.2635,101.0703
1165,34.2739,-133.7329, , ,195.2635,99.4900
1171,34.4299,29.9147, , ,195.2635,99.7894
1177,34.5859,-96.3103, , ,195.2635,99.0674
1183,34.7419,-175.6793, , ,195.2635,98.5477
1189,34.8979,68.9032, , ,195.2635,99.6338
1195,35.0539,35.4547, , ,195.2635,99.0023
1201,35.2099,59.1006, , ,195.2635,98.6497
1207,35.3659,-28.6957, , ,195.2635,97.7205
1213,35.5219,86.3142, , ,195.2635,97.8757
1219,35.6779,169.1040, , ,195.2635,97.8661
1225,35.8339,-61.4203, , ,195.2635,96.2423
1231,35.9899,-25.7964, , ,195.2635,96.4548
1237,36.1459,3.7286, , ,195.2635,96.4316
1243,36.3019,64.2405, , ,195.2635,96.3651
1249,36.4579,82.7846, , ,195.2635,96.0804
1255,36.6139,9.6300, , ,195.2635,95.3151
1261,36.7699,8.1452, , ,195.2635,94.9218
1267,36.9259,15.6703, , ,195.2635,94.1860
1273,37.0819,63.3202, , ,195.2635,94.2797
1279,37.2379,-3.8730, , ,195.2635,94.3829
1285,37.3939,51.6794, , ,195.2635,94.6380
1291,37.5499,44.6600, , ,195.2635,94.3742
1297,37.7059,103.2364, , ,195.2635,94.2695
1303,37.8619,-29.4157, , ,195.2635,93.1437
1309,38.0179,-66.1805, , ,195.2635,92.4905
1315,38.1739,-22.6907, , ,195.2635,92.2351
1321,38.3299,65.8870, , ,195.2635,92.9474
1327,38.4859,-90.6021, , ,195.2635,92.1804
1333,38.6419,-7.2284, , ,195.2635,92.5542
1339,38.7979,-39.9162, , ,195.2635,92.2998
1345,38.9539,-60.7772, , ,195.2635,91.9523
1351,39.1099,29.2174, , ,195.2635,92.0501
1357,39.2659,-22.7496, , ,195.2635,91.4545
1363,39.4219,11.7951, , ,195.2635,91.5429
1369,39.5779,-7.5318, , ,195.2635,91.5500
1375,39.7339,-14.5720, , ,195.2635,91.6241
1381,39.8899,-39.0004, , ,195.2635,91.6033
1384,39.9679,1.7181, , ,195.2635,91.8627