File: 2021/xrd/baseline_correction/mof230.ASC
  4.010        0
  4.140    -6737
  4.270    -6420
  4.400    -1146
  4.530    21464
  4.660    42632
  4.790     5320
  4.920      290
  5.050     -414
  5.180       45
  5.310      -96
  5.440      -61
  5.570       78
  5.700       -2
  5.830     -101
  5.960      130
  6.090      -67
  6.220      274
  6.350     3824
  6.480    14849
  6.610     7349
  6.740     1895
  6.870     1200
  7.000     1386
  7.130     1070
  7.260      974
  7.390      711
  7.520      484
  7.650      397
  7.780     2561
  7.910    10799
  8.040     6860
  8.170      781
  8.300       40
  8.430      -51
  8.560       11
  8.690       15
  8.820      112
  8.950      301
  9.080     4394
  9.210     7268
  9.340     1142
  9.470      -26
  9.600       49
  9.730      -23
  9.860      -95
  9.990      -88
 10.120      167
 10.250     1118
 10.380      366
 10.510      -17
 10.640      105
 10.770       49
 10.900      -69
 11.030      260
 11.160     2621
 11.290     2443
 11.420      344
 11.550      -80
 11.680      -30
 11.810      259
 11.940      -44
 12.070       72
 12.200       29
 12.330       21
 12.460      -60
 12.590      -57
 12.720       22
 12.850        1
 12.980       95
 13.110       84
 13.240      -59
 13.370       17
 13.500      -59
 13.630     1040
 13.760     3520
 13.890      445
 14.020      105
 14.150     -171
 14.280       65
 14.410     -108
 14.540       75
 14.670        0
 14.800       33
 14.930       70
 15.060      -68
 15.190      185
 15.320      -23
 15.450       73
 15.580       11
 15.710      -17
 15.840      238
 15.970      153
 16.100       83
 16.230       -7
 16.360      -96
 16.490      189
 16.620      232
 16.750       21
 16.880       55
 17.010       31
 17.140     -150
 17.270       70
 17.400      -14
 17.530        0
 17.660      -14
 17.790      -37
 17.920       -7
 18.050       17
 18.180       47
 18.310      272
 18.440       19
 18.570       43
 18.700      -22
 18.830      364
 18.960      726
 19.090      -37
 19.220      -41
 19.350      152
 19.480       15
 19.610       43
 19.740       21
 19.870      222
 20.000       48
 20.130       90
 20.260      135
 20.390       36
 20.520      572
 20.650      228
 20.780       17
 20.910      159
 21.040     1055
 21.170      276
 21.300      -75
 21.430      150
 21.560      462
 21.690      -26
 21.820      -17
 21.950       62
 22.080      109
 22.210       50
 22.340      -94
 22.470      689
 22.600      225
 22.730      -62
 22.860        8
 22.990       96
 23.120      -28
 23.250       66
 23.380      502
 23.510      590
 23.640       63
 23.770      -60
 23.900      -40
 24.030      -51
 24.160       78
 24.290       45
 24.420      136
 24.550      -27
 24.680       80
 24.810      326
 24.940      -68
 25.070       82
 25.200      215
 25.330      108
 25.460     -183
 25.590       96
 25.720       68
 25.850       27
 25.980       94
 26.110       10
 26.240       -5
 26.370       47
 26.500       -1
 26.630      -65
 26.760       88
 26.890      178
 27.020       44
 27.150       23
 27.280      195
 27.410       41
 27.540     -125
 27.670      -16
 27.800      -43
 27.930      -17
 28.060      451
 28.190      178
 28.320     -108
 28.450      200
 28.580        2
 28.710       -9
 28.840        8
 28.970      -53
 29.100       -8
 29.230      -20
 29.360        1
 29.490      158
 29.620      222
 29.750       93
 29.880       66
 30.010       90
 30.140     -176
 30.270        7
 30.400       65
 30.530       39
 30.660      119
 30.790      115
 30.920       21
 31.050       11
 31.180       -9
 31.310      158
 31.440      -45
 31.570       52
 31.700      -70
 31.830       67
 31.960       61
 32.090       29
 32.220       23
 32.350      -24
 32.480      111
 32.610      148
 32.740      203
 32.870      -51
 33.000       53
 33.130       19
 33.260     -107
 33.390       16
 33.520      -45
 33.650      112
 33.780       72
 33.910       66
 34.040      153
 34.170       15
 34.300       -5
 34.430       30
 34.560      -77
 34.690       37
 34.820      -45
 34.950        0
 35.080      -46
 35.210       59
 35.340       49
 35.470      102
 35.600      109
 35.730       82
 35.860       59
 35.990      -26
 36.120      -56
 36.250        2
 36.380       61
 36.510      -34
 36.640       90
 36.770        8
 36.900       97
 37.030      -26
 37.160      128
 37.290       -1
 37.420       -3
 37.550       45
 37.680      -35
 37.810      104
 37.940       30
 38.070       60
 38.200       48
 38.330       66
 38.460       19
 38.590      135
 38.720        5
 38.850       31
 38.980       -4
 39.110       29
 39.240       61
 39.370       32
 39.500      145
 39.630       -5
 39.760       47
 39.890      -39
 39.968        2