File: 2021/xrd/baseline_correction/mof90.CSV
No.,Pos. [°2Th.],Iobs [cts],Icalc [cts],Iback [cts],CT [s],ESD
1,4.0099,0.0000, , ,195.2635,260.4758
7,4.1659,-4101.95, , ,195.2635,245.1331
13,4.3219,11952.5, , ,195.2635,269.0977
19,4.4779,109643, , ,195.2635,407.7958
25,4.6339,16807.7, , ,195.2635,263.9230
31,4.7899,1286.97, , ,195.2635,224.1701
37,4.9459,30.8521, , ,195.2635,212.2219
43,5.1019,376.5051, , ,195.2635,203.0737
49,5.2579,-200.7670, , ,195.2635,192.9557
55,5.4139,-68.4319, , ,195.2635,186.1439
61,5.5699,145.6696, , ,195.2635,183.3239
67,5.7259,208.1563, , ,195.2635,181.2424
73,5.8819,21.2338, , ,195.2635,179.6531
79,6.0379,188.1149, , ,195.2635,181.6397
85,6.1939,3046.15, , ,195.2635,190.5984
91,6.3499,27672.2, , ,195.2635,247.7022
97,6.5059,11081.2, , ,195.2635,212.1338
103,6.6619,4476.96, , ,195.2635,196.3339
109,6.8179,3109.46, , ,195.2635,192.9898
115,6.9739,2129.64, , ,195.2635,190.1695
121,7.1299,1818.81, , ,195.2635,188.8695
127,7.2859,968.8831, , ,195.2635,185.8999
133,7.4419,715.0548, , ,195.2635,184.5046
139,7.5979,1579.97, , ,195.2635,185.9107
145,7.7539,12245.5, , ,195.2635,211.6675
151,7.9099,21379.3, , ,195.2635,230.9842
157,8.0659,876.8216, , ,195.2635,179.4194
163,8.2219,33.2884, , ,195.2635,174.9608
169,8.3779,-137.8736, , ,195.2635,172.0701
175,8.5339,-60.5295, , ,195.2635,170.0592
181,8.6899,98.2543, , ,195.2635,168.4644
187,8.8459,594.0955, , ,195.2635,169.0036
193,9.0019,7947.6, , ,195.2635,188.4713
199,9.1579,6049.9, , ,195.2635,182.0689
205,9.3139,295.9922, , ,195.2635,164.0747
211,9.4699,17.4394, , ,195.2635,161.5144
217,9.6259,115.6091, , ,195.2635,159.8425
223,9.7819,5.9274, , ,195.2635,157.8900
229,9.9379,-155.2629, , ,195.2635,156.0462
235,10.0939,1095.74, , ,195.2635,158.9866
241,10.2499,610.2825, , ,195.2635,155.9197
247,10.4059,8.5619, , ,195.2635,152.4103
253,10.5619,7.1171, , ,195.2635,150.8215
259,10.7179,-125.6310, , ,195.2635,149.4915
265,10.8739,113.0287, , ,195.2635,149.2074
271,11.0299,2152.45, , ,195.2635,154.6672
277,11.1859,7552.73, , ,195.2635,170.1232
283,11.3419,242.2031, , ,195.2635,145.4998
289,11.4979,9.4807, , ,195.2635,142.8127
295,11.6539,13.4531, , ,195.2635,141.1032
301,11.8099,65.2023, , ,195.2635,139.9471
307,11.9659,-44.1635, , ,195.2635,138.6068
313,12.1219,1.5502, , ,195.2635,137.6380
319,12.2779,152.7850, , ,195.2635,137.0989
325,12.4339,-13.2312, , ,195.2635,135.4429
331,12.5899,136.4193, , ,195.2635,135.5818
337,12.7459,23.0154, , ,195.2635,134.7752
343,12.9019,7.0485, , ,195.2635,134.3542
349,13.0579,-94.5975, , ,195.2635,133.0416
355,13.2139,42.3428, , ,195.2635,133.0024
361,13.3699,121.2745, , ,195.2635,133.1283
367,13.5259,974.6576, , ,195.2635,136.1290
373,13.6819,9373.87, , ,195.2635,163.7891
379,13.8379,295.2509, , ,195.2635,132.6150
385,13.9939,132.3793, , ,195.2635,130.9257
391,14.1499,-49.3864, , ,195.2635,129.1121
397,14.3059,61.7025, , ,195.2635,128.3889
403,14.4619,93.2234, , ,195.2635,128.0725
409,14.6179,10.5752, , ,195.2635,127.3077
415,14.7739,21.7632, , ,195.2635,126.9085
421,14.9299,-3.0739, , ,195.2635,126.3418
427,15.0859,-3.8005, , ,195.2635,125.6352
433,15.2419,6.1099, , ,195.2635,124.7322
439,15.3979,-14.8484, , ,195.2635,124.8725
445,15.5539,4.8305, , ,195.2635,125.0247
451,15.7099,121.4347, , ,195.2635,125.4131
457,15.8659,373.8934, , ,195.2635,126.3391
463,16.0219,95.7639, , ,195.2635,124.8483
469,16.1779,-53.8438, , ,195.2635,123.5482
475,16.3339,56.0839, , ,195.2635,124.1212
481,16.4899,63.4403, , ,195.2635,124.2797
487,16.6459,-91.5683, , ,195.2635,123.7838
493,16.8019,24.6638, , ,195.2635,124.0806
499,16.9579,4.8226, , ,195.2635,123.9885
505,17.1139,180.4655, , ,195.2635,124.8418
511,17.2699,-93.1153, , ,195.2635,123.8893
517,17.4259,64.9556, , ,195.2635,124.5135
523,17.5819,84.1486, , ,195.2635,124.4192
529,17.7379,-30.1038, , ,195.2635,123.5390
535,17.8939,71.5346, , ,195.2635,124.0384
541,18.0499,20.3279, , ,195.2635,124.4280
547,18.2059,240.5449, , ,195.2635,125.4427
553,18.3619,218.3774, , ,195.2635,125.4872
559,18.5179,-19.8653, , ,195.2635,124.6681
565,18.6739,-9.4224, , ,195.2635,125.3392
571,18.8299,1401.34, , ,195.2635,131.0776
577,18.9859,182.4352, , ,195.2635,126.2000
583,19.1419,68.6133, , ,195.2635,125.6050
589,19.2979,-105.4937, , ,195.2635,125.1100
595,19.4539,18.8846, , ,195.2635,126.1463
601,19.6099,-1.1176, , ,195.2635,126.6210
607,19.7659,-73.0561, , ,195.2635,126.8212
613,19.9219,199.9756, , ,195.2635,128.3042
619,20.0779,-295.0109, , ,195.2635,126.7767
625,20.2339,-40.4334, , ,195.2635,128.1454
631,20.3899,473.8199, , ,195.2635,130.4562
637,20.5459,413.2813, , ,195.2635,130.5435
643,20.7019,-96.0627, , ,195.2635,128.8200
649,20.8579,249.1191, , ,195.2635,130.3116
655,21.0139,1928.12, , ,195.2635,136.3309
661,21.1699,-63.4639, , ,195.2635,128.5322
667,21.3259,4.4566, , ,195.2635,128.5086
673,21.4819,776.5421, , ,195.2635,131.3845
679,21.6379,63.7926, , ,195.2635,128.2795
685,21.7939,32.6034, , ,195.2635,127.5230
691,21.9499,-132.0745, , ,195.2635,126.2343
697,22.1059,27.4205, , ,195.2635,126.5922
703,22.2619,224.3837, , ,195.2635,127.4633
709,22.4179,997.3463, , ,195.2635,130.5534
715,22.5739,20.5052, , ,195.2635,126.6195
721,22.7299,44.1846, , ,195.2635,126.3415
727,22.8859,79.0984, , ,195.2635,126.3320
733,23.0419,35.1661, , ,195.2635,126.0099
739,23.1979,30.8244, , ,195.2635,125.8444
745,23.3539,1599.59, , ,195.2635,131.2996
751,23.5099,192.3646, , ,195.2635,125.1653
757,23.6659,0.5840, , ,195.2635,123.7279
763,23.8219,150.7261, , ,195.2635,124.0567
769,23.9779,53.3417, , ,195.2635,123.3856
775,24.1339,55.0007, , ,195.2635,123.1138
781,24.2899,-9.1524, , ,195.2635,122.4507
787,24.4459,-41.8374, , ,195.2635,122.2654
793,24.6019,12.2184, , ,195.2635,122.7853
799,24.7579,68.8892, , ,195.2635,123.1783
805,24.9139,-87.5608, , ,195.2635,122.3183
811,25.0699,-27.2478, , ,195.2635,121.9539
817,25.2259,132.0698, , ,195.2635,122.3659
823,25.3819,-103.7143, , ,195.2635,120.9543
829,25.5379,79.7703, , ,195.2635,121.0651
835,25.6939,-32.7960, , ,195.2635,119.9481
841,25.8499,-46.9233, , ,195.2635,119.8043
847,26.0059,-32.6324, , ,195.2635,120.3469
853,26.1619,-71.3977, , ,195.2635,119.9914
859,26.3179,87.4739, , ,195.2635,120.7759
865,26.4739,-51.5969, , ,195.2635,120.6416
871,26.6299,-124.1926, , ,195.2635,120.2462
877,26.7859,507.4510, , ,195.2635,122.7523
883,26.9419,-109.4556, , ,195.2635,120.1189
889,27.0979,78.2074, , ,195.2635,120.3171
895,27.2539,334.1992, , ,195.2635,120.7982
901,27.4099,12.2200, , ,195.2635,118.8706
907,27.5659,101.9566, , ,195.2635,118.9900
913,27.7219,-34.0979, , ,195.2635,118.2465
919,27.8779,81.6149, , ,195.2635,118.6533
925,28.0339,647.9123, , ,195.2635,120.4972
931,28.1899,-76.6213, , ,195.2635,116.9175
937,28.3459,111.3919, , ,195.2635,117.1853
943,28.5019,82.5738, , ,195.2635,116.0700
949,28.6579,-88.9125, , ,195.2635,114.7276
955,28.8139,13.0658, , ,195.2635,114.9742
961,28.9699,-64.4049, , ,195.2635,114.7007
967,29.1259,210.0986, , ,195.2635,115.6868
973,29.2819,19.7012, , ,195.2635,114.3840
979,29.4379,665.9491, , ,195.2635,116.7245
985,29.5939,347.1745, , ,195.2635,114.8935
991,29.7499,-12.6641, , ,195.2635,112.8509
997,29.9059,-67.0795, , ,195.2635,111.7419
1003,30.0619,-171.1399, , ,195.2635,110.7559
1009,30.2179,22.0213, , ,195.2635,111.4631
1015,30.3739,-78.2357, , ,195.2635,110.1866
1021,30.5299,213.5360, , ,195.2635,111.1135
1027,30.6859,56.8328, , ,195.2635,110.4483
1033,30.8419,39.7139, , ,195.2635,109.8865
1039,30.9979,-67.6298, , ,195.2635,108.7277
1045,31.1539,-28.7868, , ,195.2635,108.0519
1051,31.3099,103.0618, , ,195.2635,108.3531
1057,31.4659,-6.7454, , ,195.2635,107.4861
1063,31.6219,-23.7636, , ,195.2635,106.9964
1069,31.7779,168.7296, , ,195.2635,106.7742
1075,31.9339,-27.4655, , ,195.2635,105.1501
1081,32.0899,20.4348, , ,195.2635,105.1115
1087,32.2459,32.5610, , ,195.2635,105.2769
1093,32.4019,7.4262, , ,195.2635,105.1987
1099,32.5579,-22.1606, , ,195.2635,105.0326
1105,32.7139,290.3898, , ,195.2635,105.5796
1111,32.8699,139.6094, , ,195.2635,104.1038
1117,33.0259,174.6520, , ,195.2635,103.6950
1123,33.1819,101.2661, , ,195.2635,102.7583
1129,33.3379,27.5221, , ,195.2635,102.0793
1135,33.4939,-62.7715, , ,195.2635,101.5836
1141,33.6499,45.4143, , ,195.2635,101.6239
1147,33.8059,62.0297, , ,195.2635,101.0991
1153,33.9619,224.3027, , ,195.2635,101.1796
1159,34.1179,27.1980, , ,195.2635,99.4696
1165,34.2739,-22.8117, , ,195.2635,98.7886
1171,34.4299,13.7769, , ,195.2635,98.8523
1177,34.5859,-56.6365, , ,195.2635,97.8368
1183,34.7419,-7.8283, , ,195.2635,97.7557
1189,34.8979,5.0954, , ,195.2635,97.8218
1195,35.0539,56.6884, , ,195.2635,98.0851
1201,35.2099,-13.8829, , ,195.2635,97.5301
1207,35.3659,-37.6081, , ,195.2635,97.0175
1213,35.5219,131.7851, , ,195.2635,97.5591
1219,35.6779,78.6068, , ,195.2635,96.9567
1225,35.8339,-68.6729, , ,195.2635,95.8610
1231,35.9899,12.7237, , ,195.2635,95.5618
1237,36.1459,1.8330, , ,195.2635,94.8991
1243,36.3019,22.6790, , ,195.2635,94.5234
1249,36.4579,-52.5560, , ,195.2635,94.2025
1255,36.6139,-2.8466, , ,195.2635,94.1302
1261,36.7699,9.7509, , ,195.2635,93.4438
1267,36.9259,-13.3532, , ,195.2635,93.1056
1273,37.0819,76.1223, , ,195.2635,93.2816
1279,37.2379,-20.1910, , ,195.2635,92.3678
1285,37.3939,183.8457, , ,195.2635,93.3498
1291,37.5499,45.4909, , ,195.2635,92.4887
1297,37.7059,96.2345, , ,195.2635,92.6457
1303,37.8619,45.9923, , ,195.2635,91.5223
1309,38.0179,-75.5784, , ,195.2635,90.3314
1315,38.1739,68.8666, , ,195.2635,90.9443
1321,38.3299,28.7830, , ,195.2635,90.5987
1327,38.4859,166.4271, , ,195.2635,91.2693
1333,38.6419,237.9470, , ,195.2635,91.6130
1339,38.7979,112.4798, , ,195.2635,90.8780
1345,38.9539,41.8688, , ,195.2635,90.2692
1351,39.1099,-46.4754, , ,195.2635,89.3841
1357,39.2659,107.5345, , ,195.2635,90.5145
1363,39.4219,19.0689, , ,195.2635,90.2349
1369,39.5779,-23.4356, , ,195.2635,90.1463
1375,39.7339,20.1328, , ,195.2635,90.5343
1381,39.8899,-14.4981, , ,195.2635,90.4896
1384,39.9679,2.2111, , ,195.2635,90.6307