File: 2021/xrd/baseline_correction/mof90.ASC
  4.010        0
  4.140    -4725
  4.270     3115
  4.400    40643
  4.530   123385
  4.660    10678
  4.790     1287
  4.920      127
  5.050      559
  5.180      -22
  5.310     -300
  5.440       46
  5.570      146
  5.700       19
  5.830      -36
  5.960     -118
  6.090      325
  6.220     4314
  6.350    27672
  6.480    17176
  6.610     5288
  6.740     3549
  6.870     2595
  7.000     2050
  7.130     1819
  7.260     1052
  7.390      800
  7.520      784
  7.650     2564
  7.780    17933
  7.910    21379
  8.040     1463
  8.170      175
  8.300      -63
  8.430       -5
  8.560      -50
  8.690       98
  8.820      231
  8.950     3147
  9.080    19745
  9.210     1880
  9.340      228
  9.470       17
  9.600      -81
  9.730       33
  9.860      -91
  9.990       94
 10.120     1721
 10.250      610
 10.380       21
 10.510     -152
 10.640     -137
 10.770      -53
 10.900      236
 11.030     2152
 11.160    10114
 11.290      605
 11.420       85
 11.550      -89
 11.680       48
 11.810       65
 11.940      -96
 12.070      -61
 12.200     -124
 12.330       85
 12.460       21
 12.590      136
 12.720        0
 12.850       -4
 12.980      -55
 13.110      -63
 13.240        5
 13.370      121
 13.500      576
 13.630     7408
 13.760     2326
 13.890       15
 14.020       57
 14.150      -49
 14.280     -115
 14.410      201
 14.540      123
 14.670     -248
 14.800        0
 14.930       -3
 15.060      139
 15.190       77
 15.320     -103
 15.450       -7
 15.580      -41
 15.710      121
 15.840      516
 15.970       24
 16.100       49
 16.230      106
 16.360       78
 16.490       63
 16.620      142
 16.750       58
 16.880        9
 17.010        3
 17.140       21
 17.270      -93
 17.400      113
 17.530        0
 17.660      -50
 17.790     -136
 17.920       24
 18.050       20
 18.180       59
 18.310      486
 18.440        8
 18.570      -59
 18.700      108
 18.830     1401
 18.960      319
 19.090      -60
 19.220       34
 19.350      113
 19.480      -54
 19.610       -1
 19.740      -47
 19.870       76
 20.000      287
 20.130     -133
 20.260      -58
 20.390      474
 20.520      633
 20.650      -20
 20.780      -54
 20.910     1062
 21.040     1364
 21.170      -63
 21.300     -115
 21.430      514
 21.560       95
 21.690       45
 21.820      133
 21.950     -132
 22.080       41
 22.210      209
 22.340      304
 22.470     1010
 22.600      107
 22.730       44
 22.860      123
 22.990      156
 23.120      -62
 23.250      183
 23.380     1635
 23.510      192
 23.640      -42
 23.770      148
 23.900       58
 24.030     -114
 24.160       82
 24.290       -9
 24.420       37
 24.550      -44
 24.680      181
 24.810       32
 24.940     -204
 25.070      -27
 25.200      118
 25.330       93
 25.460       -2
 25.590       -3
 25.720      -87
 25.850      -47
 25.980      -41
 26.110       20
 26.240        9
 26.370      195
 26.500      -44
 26.630     -124
 26.760      543
 26.890      195
 27.020     -112
 27.150      336
 27.280      232
 27.410       12
 27.540      -34
 27.670      -86
 27.800      -42
 27.930      595
 28.060      424
 28.190      -77
 28.320      137
 28.450      142
 28.580        9
 28.710      -83
 28.840       36
 28.970      -64
 29.100       58
 29.230       52
 29.360      141
 29.490      826
 29.620      260
 29.750      -13
 29.880     -115
 30.010       79
 30.140      -11
 30.270     -140
 30.400      147
 30.530      214
 30.660       22
 30.790      -27
 30.920       55
 31.050      -80
 31.180        8
 31.310      103
 31.440       -4
 31.570        2
 31.700      144
 31.830     -133
 31.960       93
 32.090       20
 32.220       11
 32.350     -108
 32.480      -17
 32.610      195
 32.740      190
 32.870      140
 33.000       25
 33.130     -106
 33.260      -40
 33.390      -98
 33.520       32
 33.650       45
 33.780      -43
 33.910       23
 34.040      208
 34.170       79
 34.300      -59
 34.430       14
 34.560       44
 34.690      -75
 34.820      162
 34.950       89
 35.080       18
 35.210      -14
 35.340       41
 35.470      -88
 35.600      113
 35.730     -132
 35.860      -12
 35.990       13
 36.120       -5
 36.250       -6
 36.380      -43
 36.510      -23
 36.640       13
 36.770       10
 36.900       -4
 37.030       33
 37.160       46
 37.290       63
 37.420      107
 37.550       45
 37.680      137
 37.810       95
 37.940      -16
 38.070       19
 38.200      -11
 38.330       29
 38.460       78
 38.590       83
 38.720       56
 38.850       58
 38.980       22
 39.110      -46
 39.240       66
 39.370       -1
 39.500      111
 39.630      151
 39.760       52
 39.890      -14
 39.968        2