File: 2021/xrd/baseline_correction/pynmof.ASC
  4.010        0
  4.140     -138
  4.270     3673
  4.400     2093
  4.530     1090
  4.660      500
  4.790      235
  4.920      150
  5.050       77
  5.180      -58
  5.310      -23
  5.440      -51
  5.570       69
  5.700      -29
  5.830       25
  5.960      -40
  6.090       80
  6.220      155
  6.350        5
  6.480       57
  6.610      -77
  6.740      -54
  6.870      116
  7.000     -229
  7.130      -30
  7.260      243
  7.390       14
  7.520      -30
  7.650       67
  7.780      -82
  7.910     -184
  8.040      141
  8.170     1969
  8.300     4420
  8.430      402
  8.560      357
  8.690     2194
  8.820    11075
  8.950    35748
  9.080    14338
  9.210     3302
  9.340     2931
  9.470     3500
  9.600     1260
  9.730      -20
  9.860      -36
  9.990      357
 10.120     2335
 10.250     3881
 10.380      980
 10.510       81
 10.640      -90
 10.770       34
 10.900       19
 11.030      -41
 11.160      825
 11.290     4596
 11.420     1434
 11.550     -116
 11.680     -168
 11.810      255
 11.940     1405
 12.070     8047
 12.200    10010
 12.330    15945
 12.460    27644
 12.590    70453
 12.720    36977
 12.850     6567
 12.980     1744
 13.110      657
 13.240     1221
 13.370     2784
 13.500      648
 13.630       15
 13.760       49
 13.890       29
 14.020      -17
 14.150     -202
 14.280        9
 14.410       76
 14.540      533
 14.670     3529
 14.800     5365
 14.930     1153
 15.060      355
 15.190     -180
 15.320       34
 15.450      523
 15.580     2580
 15.710     1929
 15.840      293
 15.970       25
 16.100       -8
 16.230       38
 16.360       24
 16.490      130
 16.620      335
 16.750     -108
 16.880      -82
 17.010      230
 17.140      578
 17.270      719
 17.400      341
 17.530        3
 17.660       93
 17.790      156
 17.920     1325
 18.050     1989
 18.180      295
 18.310       49
 18.440      -78
 18.570       26
 18.700      -90
 18.830       88
 18.960      260
 19.090      441
 19.220      -28
 19.350      -85
 19.480       37
 19.610       33
 19.740        1
 19.870      -82
 20.000      122
 20.130      269
 20.260      120
 20.390      146
 20.520      -63
 20.650      102
 20.780     1080
 20.910      108
 21.040      -65
 21.170      279
 21.300     1579
 21.430     2323
 21.560      643
 21.690      664
 21.820     1484
 21.950     1340
 22.080      208
 22.210      -62
 22.340       58
 22.470      -61
 22.600       35
 22.730      380
 22.860      221
 22.990       17
 23.120       14
 23.250      -42
 23.380     -162
 23.510      115
 23.640       68
 23.770      353
 23.900     1804
 24.030     2531
 24.160     1484
 24.290      -11
 24.420      734
 24.550     2814
 24.680     4229
 24.810     4657
 24.940     4691
 25.070     8171
 25.200    18252
 25.330    16225
 25.460    12244
 25.590     2658
 25.720        6
 25.850      348
 25.980      137
 26.110     -309
 26.240       28
 26.370     2339
 26.500     3845
 26.630      860
 26.760      511
 26.890      607
 27.020      296
 27.150      879
 27.280     3354
 27.410    13794
 27.540    48386
 27.670    53490
 27.800    18393
 27.930     7359
 28.060     3492
 28.190     2552
 28.320      927
 28.450      446
 28.580        4
 28.710      665
 28.840     3088
 28.970     5558
 29.100     2354
 29.230      331
 29.360     -115
 29.490      -63
 29.620      153
 29.750      392
 29.880      108
 30.010        2
 30.140      102
 30.270      255
 30.400      120
 30.530      158
 30.660      -63
 30.790       11
 30.920      -64
 31.050      153
 31.180       70
 31.310      200
 31.440      416
 31.570      535
 31.700      276
 31.830      -58
 31.960       29
 32.090        3
 32.220       -4
 32.350      -48
 32.480       76
 32.610       10
 32.740      105
 32.870      200
 33.000      213
 33.130       70
 33.260      -18
 33.390       41
 33.520      140
 33.650      273
 33.780      196
 33.910       24
 34.040      118
 34.170      728
 34.300     1936
 34.430     1029
 34.560      192
 34.690      -18
 34.820      153
 34.950      671
 35.080      634
 35.210      259
 35.340      145
 35.470      -13
 35.600      -33
 35.730       87
 35.860       33
 35.990        6
 36.120       68
 36.250       62
 36.380       76
 36.510        5
 36.640      111
 36.770      -48
 36.900      -75
 37.030      129
 37.160       84
 37.290      129
 37.420       40
 37.550      -84
 37.680       24
 37.810      277
 37.940      113
 38.070      138
 38.200       24
 38.330      -36
 38.460       58
 38.590      182
 38.720       38
 38.850      292
 38.980      511
 39.110      264
 39.240       46
 39.370      -41
 39.500     -111
 39.630     -200
 39.760      199
 39.890      233
 39.968        8