File: 2021/xrd/baseline_correction/pynmof.CSV
No.,Pos. [°2Th.],Iobs [cts],Icalc [cts],Iback [cts],CT [s],ESD
1,4.0099,0.0000, , ,195.2635,253.1514
7,4.1659,1134.55, , ,195.2635,210.3531
13,4.3219,2994.35, , ,195.2635,187.8177
19,4.4779,1593.16, , ,195.2635,182.1552
25,4.6339,697.5913, , ,195.2635,177.5461
31,4.7899,235.2350, , ,195.2635,174.0630
37,4.9459,222.2269, , ,195.2635,171.8214
43,5.1019,-105.4462, , ,195.2635,168.4162
49,5.2579,243.9093, , ,195.2635,167.4194
55,5.4139,29.3392, , ,195.2635,165.1585
61,5.5699,69.3079, , ,195.2635,163.6011
67,5.7259,-4.9153, , ,195.2635,161.6387
73,5.8819,-75.3079, , ,195.2635,159.6267
79,6.0379,72.7301, , ,195.2635,158.2637
85,6.1939,-24.9978, , ,195.2635,156.1698
91,6.3499,4.6786, , ,195.2635,154.5273
97,6.5059,-153.5742, , ,195.2635,152.8881
103,6.6619,-226.4100, , ,195.2635,151.5132
109,6.8179,313.6779, , ,195.2635,152.1535
115,6.9739,-61.3549, , ,195.2635,149.5114
121,7.1299,-29.8210, , ,195.2635,148.4975
127,7.2859,102.4410, , ,195.2635,148.1163
133,7.4419,70.9476, , ,195.2635,147.1789
139,7.5979,34.9280, , ,195.2635,146.2427
145,7.7539,-1.6260, , ,195.2635,145.3216
151,7.9099,-183.6345, , ,195.2635,145.0989
157,8.0659,406.4740, , ,195.2635,147.5271
163,8.2219,3578.08, , ,195.2635,158.3016
169,8.3779,1440.68, , ,195.2635,151.5170
175,8.5339,102.0084, , ,195.2635,146.9857
181,8.6899,2193.5, , ,195.2635,153.7303
187,8.8459,15394.1, , ,195.2635,191.4985
193,9.0019,32600.7, , ,195.2635,231.7681
199,9.1579,5292.57, , ,195.2635,162.0075
205,9.3139,2419.19, , ,195.2635,152.0281
211,9.4699,3500.45, , ,195.2635,154.5445
217,9.6259,868.2690, , ,195.2635,144.5433
223,9.7819,-21.3955, , ,195.2635,139.8431
229,9.9379,162.2915, , ,195.2635,139.0364
235,10.0939,1702.74, , ,195.2635,143.1826
241,10.2499,3881, , ,195.2635,149.3626
247,10.4059,554.7916, , ,195.2635,136.2992
253,10.5619,-21.5204, , ,195.2635,132.5160
259,10.7179,-22.5670, , ,195.2635,131.3802
265,10.8739,29.8897, , ,195.2635,131.1077
271,11.0299,-40.9043, , ,195.2635,131.0309
277,11.1859,1452.28, , ,195.2635,136.8318
283,11.3419,4499.43, , ,195.2635,147.7524
289,11.4979,-2.2768, , ,195.2635,131.8701
295,11.6539,-109.5452, , ,195.2635,131.3867
301,11.8099,254.5987, , ,195.2635,132.9044
307,11.9659,2308.71, , ,195.2635,140.7540
313,12.1219,9570.34, , ,195.2635,164.5828
319,12.2779,12121.7, , ,195.2635,172.0764
325,12.4339,23605.4, , ,195.2635,202.5409
331,12.5899,70452.5, , ,195.2635,296.1592
337,12.7459,25852.5, , ,195.2635,207.2455
343,12.9019,3869.83, , ,195.2635,144.2513
349,13.0579,1110, , ,195.2635,133.4191
355,13.2139,926.0769, , ,195.2635,131.6174
361,13.3699,2783.85, , ,195.2635,137.2650
367,13.5259,319.2682, , ,195.2635,126.2785
373,13.6819,43.1497, , ,195.2635,123.2782
379,13.8379,-45.2400, , ,195.2635,120.8088
385,13.9939,-76.0212, , ,195.2635,120.4546
391,14.1499,-201.7760, , ,195.2635,119.6476
397,14.3059,4.5866, , ,195.2635,120.1690
403,14.4619,51.5143, , ,195.2635,120.0768
409,14.6179,1772.2, , ,195.2635,126.5981
415,14.7739,6017.93, , ,195.2635,141.8372
421,14.9299,1153.15, , ,195.2635,122.8740
427,15.0859,150.7434, , ,195.2635,117.8883
433,15.2419,30.8635, , ,195.2635,116.3480
439,15.3979,231.6731, , ,195.2635,117.3773
445,15.5539,2053.75, , ,195.2635,124.8643
451,15.7099,1929.21, , ,195.2635,124.1371
457,15.8659,121.1694, , ,195.2635,116.3849
463,16.0219,-21.0629, , ,195.2635,115.3586
469,16.1779,-35.1971, , ,195.2635,114.7118
475,16.3339,-21.5452, , ,195.2635,114.5678
481,16.4899,129.7383, , ,195.2635,114.9902
487,16.6459,244.6156, , ,195.2635,115.2199
493,16.8019,88.7453, , ,195.2635,114.2705
499,16.9579,56.7239, , ,195.2635,113.8982
505,17.1139,342.8085, , ,195.2635,114.9568
511,17.2699,719.0914, , ,195.2635,115.9652
517,17.4259,315.2147, , ,195.2635,113.5809
523,17.5819,117.8786, , ,195.2635,112.0709
529,17.7379,70.2568, , ,195.2635,111.8809
535,17.8939,1012.77, , ,195.2635,116.0385
541,18.0499,1988.85, , ,195.2635,120.1919
547,18.2059,194.5372, , ,195.2635,112.1500
553,18.3619,-122.0517, , ,195.2635,110.1754
559,18.5179,31.4118, , ,195.2635,110.0973
565,18.6739,-126.9846, , ,195.2635,109.1315
571,18.8299,88.0319, , ,195.2635,109.9911
577,18.9859,275.3837, , ,195.2635,110.8394
583,19.1419,146.1469, , ,195.2635,110.2549
589,19.2979,-85.4587, , ,195.2635,109.0774
595,19.4539,-103.3561, , ,195.2635,108.7504
601,19.6099,32.7437, , ,195.2635,109.3256
607,19.7659,-94.2799, , ,195.2635,108.5129
613,19.9219,-8.6682, , ,195.2635,108.4958
619,20.0779,110.0684, , ,195.2635,109.5159
625,20.2339,354.9816, , ,195.2635,111.0960
631,20.3899,145.5941, , ,195.2635,110.6191
637,20.5459,-19.8430, , ,195.2635,109.8961
643,20.7019,89.3352, , ,195.2635,110.5833
649,20.8579,596.9168, , ,195.2635,113.2030
655,21.0139,-2.8137, , ,195.2635,110.8776
661,21.1699,279.3755, , ,195.2635,112.7443
667,21.3259,1959.09, , ,195.2635,120.7594
673,21.4819,1430.17, , ,195.2635,118.9108
679,21.6379,357.5017, , ,195.2635,114.4991
685,21.7939,1144.15, , ,195.2635,117.8845
691,21.9499,1339.67, , ,195.2635,118.7110
697,22.1059,-125.9395, , ,195.2635,112.1777
703,22.2619,69.3836, , ,195.2635,112.6649
709,22.4179,-23.5470, , ,195.2635,111.9365
715,22.5739,23.3586, , ,195.2635,112.3196
721,22.7299,380.4715, , ,195.2635,114.5490
727,22.8859,281.4413, , ,195.2635,114.7654
733,23.0419,-155.1109, , ,195.2635,113.4588
739,23.1979,152.4931, , ,195.2635,115.3624
745,23.3539,-104.2533, , ,195.2635,114.8031
751,23.5099,114.6985, , ,195.2635,117.2770
757,23.6659,88.6488, , ,195.2635,119.6255
763,23.8219,1167.59, , ,195.2635,126.0864
769,23.9779,1882.99, , ,195.2635,130.7014
775,24.1339,1947.34, , ,195.2635,132.5820
781,24.2899,-10.7151, , ,195.2635,126.3556
787,24.4459,1139.15, , ,195.2635,131.9736
793,24.6019,3402.8, , ,195.2635,141.2012
799,24.7579,4991.06, , ,195.2635,147.2895
805,24.9139,4489.33, , ,195.2635,146.1527
811,25.0699,8170.66, , ,195.2635,158.7769
817,25.2259,19089.8, , ,195.2635,190.2854
823,25.3819,15799.1, , ,195.2635,181.5283
829,25.5379,5821.72, , ,195.2635,151.5431
835,25.6939,201.5824, , ,195.2635,131.3379
841,25.8499,348.3096, , ,195.2635,131.3831
847,26.0059,84.5225, , ,195.2635,129.7055
853,26.1619,-290.0768, , ,195.2635,127.2802
859,26.3179,1031.72, , ,195.2635,132.3595
865,26.4739,4144.47, , ,195.2635,144.4799
871,26.6299,859.5463, , ,195.2635,133.2126
877,26.7859,566.0672, , ,195.2635,132.5218
883,26.9419,492.0937, , ,195.2635,132.4833
889,27.0979,616.2439, , ,195.2635,132.8325
895,27.2539,2712.26, , ,195.2635,140.2196
901,27.4099,13793.9, , ,195.2635,174.9764
907,27.5659,55015.9, , ,195.2635,267.7917
913,27.7219,38333.9, , ,195.2635,234.2147
919,27.8779,9689.48, , ,195.2635,161.2167
925,28.0339,3998.19, , ,195.2635,141.3639
931,28.1899,2551.52, , ,195.2635,134.8182
937,28.3459,689.1312, , ,195.2635,126.1232
943,28.5019,190.2470, , ,195.2635,122.1429
949,28.6579,278.7544, , ,195.2635,121.2011
955,28.8139,2308.2, , ,195.2635,128.7363
961,28.9699,5558.27, , ,195.2635,139.8932
967,29.1259,1790.49, , ,195.2635,124.6969
973,29.2819,42.2527, , ,195.2635,116.3962
979,29.4379,-27.4748, , ,195.2635,114.5359
985,29.5939,117.0510, , ,195.2635,113.8012
991,29.7499,391.9307, , ,195.2635,113.8461
997,29.9059,113.3724, , ,195.2635,111.4348
1003,30.0619,-127.4578, , ,195.2635,109.1591
1009,30.2179,148.3481, , ,195.2635,109.2422
1015,30.3739,122.6969, , ,195.2635,107.9376
1021,30.5299,157.5228, , ,195.2635,106.6655
1027,30.6859,69.7668, , ,195.2635,104.5551
1033,30.8419,-115.9989, , ,195.2635,102.8040
1039,30.9979,144.6956, , ,195.2635,103.6257
1045,31.1539,66.6911, , ,195.2635,103.2252
1051,31.3099,199.6009, , ,195.2635,103.8437
1057,31.4659,519.7640, , ,195.2635,105.1718
1063,31.6219,450.8134, , ,195.2635,104.4596
1069,31.7779,39.5769, , ,195.2635,101.7705
1075,31.9339,-23.2262, , ,195.2635,100.5059
1081,32.0899,2.6651, , ,195.2635,99.4217
1087,32.2459,-36.0846, , ,195.2635,97.6486
1093,32.4019,-32.4070, , ,195.2635,96.4862
1099,32.5579,81.6029, , ,195.2635,96.3099
1105,32.7139,27.0674, , ,195.2635,96.2033
1111,32.8699,200.4601, , ,195.2635,97.1217
1117,33.0259,104.7259, , ,195.2635,96.4947
1123,33.1819,10.1606, , ,195.2635,95.8697
1129,33.3379,54.8316, , ,195.2635,96.1795
1135,33.4939,96.2355, , ,195.2635,96.6811
1141,33.6499,273.1756, , ,195.2635,97.8750
1147,33.8059,60.7757, , ,195.2635,96.8131
1153,33.9619,-13.5775, , ,195.2635,96.1999
1159,34.1179,475.0150, , ,195.2635,98.3792
1165,34.2739,1819.62, , ,195.2635,104.5288
1171,34.4299,1028.94, , ,195.2635,100.0326
1177,34.5859,53.4891, , ,195.2635,94.3505
1183,34.7419,-10.2906, , ,195.2635,93.3878
1189,34.8979,441.5478, , ,195.2635,95.2273
1195,35.0539,773.1195, , ,195.2635,96.4102
1201,35.2099,258.8385, , ,195.2635,92.9933
1207,35.3659,-66.2281, , ,195.2635,90.3425
1213,35.5219,-86.4057, , ,195.2635,88.9209
1219,35.6779,-29.0856, , ,195.2635,88.2473
1225,35.8339,-19.6081, , ,195.2635,87.6264
1231,35.9899,5.5508, , ,195.2635,87.1219
1237,36.1459,20.7454, , ,195.2635,86.6530
1243,36.3019,-10.9995, , ,195.2635,86.0058
1249,36.4579,117.6179, , ,195.2635,86.5734
1255,36.6139,129.7477, , ,195.2635,86.4663
1261,36.7699,-47.8738, , ,195.2635,85.2533
1267,36.9259,-102.0221, , ,195.2635,84.7151
1273,37.0819,-1.1707, , ,195.2635,85.3375
1279,37.2379,201.9910, , ,195.2635,86.7928
1285,37.3939,123.3608, , ,195.2635,86.6123
1291,37.5499,-83.6846, , ,195.2635,85.5160
1297,37.7059,46.0573, , ,195.2635,86.2094
1303,37.8619,200.3909, , ,195.2635,87.0386
1309,38.0179,89.8889, , ,195.2635,86.1775
1315,38.1739,36.3449, , ,195.2635,85.4772
1321,38.3299,-35.9644, , ,195.2635,84.5027
1327,38.4859,58.4412, , ,195.2635,84.9923
1333,38.6419,45.0089, , ,195.2635,85.3274
1339,38.7979,169.6990, , ,195.2635,85.9483
1345,38.9539,519.1523, , ,195.2635,87.8535
1351,39.1099,264.2690, , ,195.2635,86.2845
1357,39.2659,-5.8471, , ,195.2635,84.0698
1363,39.4219,-79.4023, , ,195.2635,83.5857
1369,39.5779,-158.7055, , ,195.2635,83.6613
1375,39.7339,158.0367, , ,195.2635,86.0691
1381,39.8899,232.9096, , ,195.2635,87.0328
1384,39.9679,7.6617, , ,195.2635,85.9075