File: 2021/XRD/12021.ASC
  3.000      100
  3.100      121
  3.200      132
  3.300      119
  3.400      125
  3.500      119
  3.600      106
  3.700      128
  3.800      135
  3.900      108
  4.000      121
  4.100      151
  4.200      151
  4.300      188
  4.400      164
  4.500      182
  4.600      190
  4.700      216
  4.800      228
  4.900      246
  5.000      237
  5.100      216
  5.200      210
  5.300      219
  5.400      190
  5.500      164
  5.600      151
  5.700      151
  5.800      166
  5.900      137
  6.000      174
  6.100      151
  6.200      169
  6.300      164
  6.400      159
  6.500      169
  6.600      182
  6.700      164
  6.800      161
  6.900      166
  7.000      207
  7.100      210
  7.200      219
  7.300      196
  7.400      164
  7.500      159
  7.600      146
  7.700      164
  7.800      166
  7.900      146
  8.000      154
  8.100      159
  8.200      169
  8.300      146
  8.400      159
  8.500      144
  8.600      164
  8.700      142
  8.800      156
  8.900      169
  9.000      159
  9.100      137
  9.200      169
  9.300      182
  9.400      159
  9.500      161
  9.600      174
  9.700      174
  9.800      188
  9.900      182
 10.000      196
 10.100      154
 10.200      172
 10.300      156
 10.400      185
 10.500      159
 10.600      210
 10.700      199
 10.800      202
 10.900      188
 11.000      185
 11.100      199
 11.200      207
 11.300      193
 11.400      219
 11.500      225
 11.600      216
 11.700      222
 11.800      225
 11.900      213
 12.000      225
 12.100      210
 12.200      237
 12.300      219
 12.400      250
 12.500      269
 12.600      256
 12.700      256
 12.800      256
 12.900      253
 13.000      259
 13.100      276
 13.200      262
 13.300      246
 13.400      240
 13.500      246
 13.600      246
 13.700      262
 13.800      289
 13.900      237
 14.000      228
 14.100      246
 14.200      228
 14.300      228
 14.400      225
 14.500      234
 14.600      222
 14.700      210
 14.800      237
 14.900      225
 15.000      216
 15.100      213
 15.200      188
 15.300      199
 15.400      190
 15.500      182
 15.600      185
 15.700      193
 15.800      204
 15.900      185
 16.000      161
 16.100      156
 16.200      182
 16.300      193
 16.400      164
 16.500      146
 16.600      135
 16.700      174
 16.800      151
 16.900      149
 17.000      188
 17.100      130
 17.200      142
 17.300      135
 17.400      144
 17.500      156
 17.600      146
 17.700      137
 17.800      172
 17.900      130
 18.000      132
 18.100      144
 18.200      121
 18.300      130
 18.400      119
 18.500      130
 18.600      106
 18.700      130
 18.800       94
 18.900      112
 19.000      125
 19.100      112
 19.200      121
 19.300      100
 19.400      125
 19.500       85
 19.600       96
 19.700      121
 19.800      110
 19.900       94
 20.000      106
 20.100       94
 20.200       92
 20.300      108
 20.400       94
 20.500       96
 20.600       71
 20.700      100
 20.800       85
 20.900       85
 21.000       92
 21.100      104
 21.200       79
 21.300       88
 21.400       88
 21.500       90
 21.600       72
 21.700       85
 21.800       94
 21.900      100
 22.000       94
 22.100       92
 22.200       62
 22.300       76
 22.400       83
 22.500       88
 22.600       77
 22.700       71
 22.800       76
 22.900       72
 23.000       66
 23.100       77
 23.200       83
 23.300       83
 23.400       67
 23.500       86
 23.600       79
 23.700       77
 23.800       67
 23.900       67
 24.000       71
 24.100       72
 24.200       88
 24.300       71
 24.400       76
 24.500       59
 24.600       90
 24.700       76
 24.800       83
 24.900       86
 25.000       55
 25.100       67
 25.200       66
 25.300       71
 25.400       50
 25.500       66
 25.600       67
 25.700       76
 25.800       71
 25.900       66
 26.000       76
 26.100       72
 26.200       62
 26.300       72
 26.400       72
 26.500       74
 26.600       86
 26.700       83
 26.800       67
 26.900       67
 27.000       85
 27.100       79
 27.200       67
 27.300       83
 27.400       74
 27.500       79
 27.600       85
 27.700       77
 27.800       72
 27.900       77
 28.000       88
 28.100       94
 28.200       77
 28.300       76
 28.400       76
 28.500       85
 28.600       69
 28.700       86
 28.800       71
 28.900       85
 29.000       76
 29.100       72
 29.200       67
 29.300       64
 29.400       77
 29.500       67
 29.600       85
 29.700       86
 29.800       77
 29.900       67
 30.000       69