File: 2021/XRD/22021.ASC
  3.000      149
  3.100      130
  3.200      130
  3.300      154
  3.400      149
  3.500      130
  3.600      159
  3.700      130
  3.800      142
  3.900      154
  4.000      188
  4.100      139
  4.200      172
  4.300      169
  4.400      182
  4.500      174
  4.600      149
  4.700      164
  4.800      174
  4.900      149
  5.000      135
  5.100      142
  5.200      125
  5.300      128
  5.400      137
  5.500      135
  5.600      119
  5.700      130
  5.800      128
  5.900      142
  6.000      130
  6.100      130
  6.200      135
  6.300      128
  6.400      123
  6.500      114
  6.600      128
  6.700      108
  6.800      110
  6.900      137
  7.000      121
  7.100      123
  7.200      104
  7.300      114
  7.400       96
  7.500      114
  7.600      112
  7.700      121
  7.800      100
  7.900      104
  8.000      123
  8.100       90
  8.200      100
  8.300       96
  8.400       88
  8.500      102
  8.600       94
  8.700       94
  8.800      110
  8.900       85
  9.000       85
  9.100       77
  9.200       77
  9.300       88
  9.400       86
  9.500       92
  9.600       79
  9.700       83
  9.800       81
  9.900       62
 10.000       83
 10.100       67
 10.200       76
 10.300       53
 10.400       59
 10.500       53
 10.600       79
 10.700       59
 10.800       55
 10.900       67
 11.000       67
 11.100       55
 11.200       48
 11.300       59
 11.400       53
 11.500       56
 11.600       49
 11.700       53
 11.800       62
 11.900       58
 12.000       48
 12.100       62
 12.200       46
 12.300       46
 12.400       49
 12.500       48
 12.600       48
 12.700       53
 12.800       53
 12.900       32
 13.000       50
 13.100       37
 13.200       48
 13.300       44
 13.400       38
 13.500       44
 13.600       41
 13.700       42
 13.800       62
 13.900       48
 14.000       38
 14.100       40
 14.200       48
 14.300       46
 14.400       38
 14.500       38
 14.600       42
 14.700       49
 14.800       41
 14.900       35
 15.000       40
 15.100       59
 15.200       41
 15.300       40
 15.400       38
 15.500       32
 15.600       28
 15.700       32
 15.800       44
 15.900       44
 16.000       35
 16.100       49
 16.200       38
 16.300       35
 16.400       26
 16.500       40
 16.600       36
 16.700       28
 16.800       38
 16.900       46
 17.000       31
 17.100       53
 17.200       38
 17.300       40
 17.400       35
 17.500       44
 17.600       42
 17.700       36
 17.800       26
 17.900       48
 18.000       34
 18.100       42
 18.200       32
 18.300       44
 18.400       41
 18.500       32
 18.600       36
 18.700       46
 18.800       28
 18.900       40
 19.000       45
 19.100       32
 19.200       36
 19.300       37
 19.400       44
 19.500       41
 19.600       38
 19.700       45
 19.800       50
 19.900       37
 20.000       46
 20.100       46
 20.200       50
 20.300       38
 20.400       46
 20.500       37
 20.600       40
 20.700       48
 20.800       37
 20.900       50
 21.000       50
 21.100       35
 21.200       44
 21.300       56
 21.400       42
 21.500       38
 21.600       50
 21.700       48
 21.800       48
 21.900       50
 22.000       49
 22.100       48
 22.200       59
 22.300       38
 22.400       29
 22.500       61
 22.600       59
 22.700       38
 22.800       36
 22.900       40
 23.000       48
 23.100       48
 23.200       56
 23.300       53
 23.400       55
 23.500       50
 23.600       67
 23.700       42
 23.800       41
 23.900       44
 24.000       53
 24.100       44
 24.200       48
 24.300       49
 24.400       44
 24.500       56
 24.600       62
 24.700       50
 24.800       52
 24.900       62
 25.000       67
 25.100       71
 25.200       48
 25.300       55
 25.400       56
 25.500       62
 25.600       50
 25.700       69
 25.800       59
 25.900       56
 26.000       56
 26.100       46
 26.200       52
 26.300       52
 26.400       58
 26.500       53
 26.600       58
 26.700       52
 26.800       56
 26.900       77
 27.000       50
 27.100       56
 27.200       62
 27.300       66
 27.400       56
 27.500       76
 27.600       67
 27.700       48
 27.800       69
 27.900       71
 28.000       62
 28.100       77
 28.200       66
 28.300       56
 28.400       53
 28.500       59
 28.600       56
 28.700       69
 28.800       66
 28.900       56
 29.000       67
 29.100       71
 29.200       62
 29.300       48
 29.400       52
 29.500       59
 29.600       59
 29.700       67
 29.800       72
 29.900       61
 30.000       48