File: 2021/XRD/32021.ASC
  3.000      164
  3.100      164
  3.200      177
  3.300      193
  3.400      182
  3.500      185
  3.600      204
  3.700      199
  3.800      228
  3.900      276
  4.000      289
  4.100      299
  4.200      396
  4.300      520
  4.400      645
  4.500      847
  4.600     1274
  4.700     1136
  4.800      458
  4.900      350
  5.000      266
  5.100      282
  5.200      246
  5.300      253
  5.400      246
  5.500      219
  5.600      222
  5.700      231
  5.800      253
  5.900      228
  6.000      225
  6.100      222
  6.200      296
  6.300      339
  6.400      408
  6.500      524
  6.600      416
  6.700      256
  6.800      276
  6.900      256
  7.000      231
  7.100      237
  7.200      196
  7.300      222
  7.400      259
  7.500      240
  7.600      240
  7.700      237
  7.800      279
  7.900      369
  8.000      376
  8.100      234
  8.200      207
  8.300      166
  8.400      144
  8.500      159
  8.600      172
  8.700      144
  8.800      146
  8.900      169
  9.000      161
  9.100      204
  9.200      276
  9.300      202
  9.400      132
  9.500      123
  9.600      128
  9.700      130
  9.800      137
  9.900      100
 10.000      125
 10.100      130
 10.200      132
 10.300      139
 10.400      130
 10.500       90
 10.600       98
 10.700      102
 10.800       90
 10.900      121
 11.000       98
 11.100      128
 11.200      159
 11.300      139
 11.400      108
 11.500       88
 11.600       96
 11.700       86
 11.800       98
 11.900      110
 12.000       88
 12.100       83
 12.200       86
 12.300       81
 12.400       90
 12.500       94
 12.600       79
 12.700       76
 12.800       98
 12.900       77
 13.000       86
 13.100       85
 13.200       79
 13.300       85
 13.400       76
 13.500       71
 13.600      108
 13.700       92
 13.800      121
 13.900       96
 14.000       88
 14.100       88
 14.200       74
 14.300       71
 14.400       71
 14.500       76
 14.600       94
 14.700       71
 14.800       62
 14.900       72
 15.000       59
 15.100       67
 15.200       64
 15.300       62
 15.400       64
 15.500       83
 15.600       67
 15.700       81
 15.800       86
 15.900       83
 16.000       66
 16.100       61
 16.200       71
 16.300       66
 16.400       77
 16.500       71
 16.600       61
 16.700       76
 16.800       62
 16.900       83
 17.000       61
 17.100       64
 17.200       71
 17.300       85
 17.400       62
 17.500       88
 17.600       74
 17.700       77
 17.800       71
 17.900       85
 18.000       94
 18.100       98
 18.200       92
 18.300       71
 18.400       85
 18.500       76
 18.600       67
 18.700       56
 18.800       77
 18.900       67
 19.000       85
 19.100       88
 19.200       74
 19.300       86
 19.400       76
 19.500       81
 19.600       67
 19.700       77
 19.800       85
 19.900       79
 20.000       79
 20.100       74
 20.200       85
 20.300      104
 20.400      104
 20.500       98
 20.600       94
 20.700       90
 20.800      100
 20.900       96
 21.000       92
 21.100      108
 21.200       72
 21.300       98
 21.400       71
 21.500       81
 21.600       96
 21.700       76
 21.800       85
 21.900       76
 22.000       92
 22.100       83
 22.200       77
 22.300       88
 22.400       64
 22.500       67
 22.600       92
 22.700       71
 22.800       77
 22.900       72
 23.000       66
 23.100      102
 23.200       76
 23.300       77
 23.400       77
 23.500       72
 23.600       77
 23.700       72
 23.800       77
 23.900       69
 24.000       79
 24.100       85
 24.200       86
 24.300       85
 24.400       52
 24.500       67
 24.600       81
 24.700       83
 24.800       85
 24.900       88
 25.000       71
 25.100       83
 25.200       85
 25.300       69
 25.400       71
 25.500       83
 25.600       92
 25.700       77
 25.800       92
 25.900       71
 26.000       94
 26.100       76
 26.200       77
 26.300       94
 26.400       81
 26.500       88
 26.600       85
 26.700       85
 26.800       83
 26.900       83
 27.000      100
 27.100       71
 27.200       85
 27.300       85
 27.400       94
 27.500       85
 27.600       90
 27.700       71
 27.800       94
 27.900       86
 28.000       88
 28.100       86
 28.200       96
 28.300       86
 28.400       77
 28.500       92
 28.600       96
 28.700       86
 28.800       92
 28.900       86
 29.000       85
 29.100       88
 29.200       77
 29.300      112
 29.400      100
 29.500       86
 29.600       90
 29.700       88
 29.800       88
 29.900       77
 30.000       90