File: 2021/XRD/42021.ASC
  3.000       83
  3.100       81
  3.200       94
  3.300       94
  3.400       90
  3.500      100
  3.600       96
  3.700      123
  3.800      114
  3.900      106
  4.000      144
  4.100      137
  4.200      156
  4.300      172
  4.400      202
  4.500      210
  4.600      225
  4.700      240
  4.800      222
  4.900      243
  5.000      204
  5.100      188
  5.200      166
  5.300      219
  5.400      172
  5.500      180
  5.600      151
  5.700      137
  5.800      154
  5.900      137
  6.000      180
  6.100      132
  6.200      164
  6.300      159
  6.400      190
  6.500      210
  6.600      202
  6.700      204
  6.800      190
  6.900      169
  7.000      190
  7.100      188
  7.200      172
  7.300      154
  7.400      164
  7.500      174
  7.600      132
  7.700      151
  7.800      174
  7.900      154
  8.000      132
  8.100      139
  8.200      135
  8.300      135
  8.400      121
  8.500      114
  8.600      110
  8.700      114
  8.800      117
  8.900      130
  9.000      108
  9.100       90
  9.200       90
  9.300      104
  9.400      102
  9.500      100
  9.600       83
  9.700      100
  9.800       86
  9.900       64
 10.000      102
 10.100       72
 10.200       86
 10.300       74
 10.400       86
 10.500       71
 10.600       79
 10.700       77
 10.800       71
 10.900       67
 11.000       71
 11.100       66
 11.200       64
 11.300       72
 11.400       62
 11.500       66
 11.600       62
 11.700       56
 11.800       56
 11.900       59
 12.000       53
 12.100       52
 12.200       62
 12.300       53
 12.400       59
 12.500       69
 12.600       48
 12.700       59
 12.800       48
 12.900       49
 13.000       53
 13.100       61
 13.200       66
 13.300       71
 13.400       48
 13.500       62
 13.600       53
 13.700       61
 13.800       49
 13.900       59
 14.000       66
 14.100       36
 14.200       46
 14.300       55
 14.400       49
 14.500       53
 14.600       44
 14.700       45
 14.800       53
 14.900       50
 15.000       55
 15.100       42
 15.200       37
 15.300       40
 15.400       36
 15.500       44
 15.600       44
 15.700       42
 15.800       40
 15.900       50
 16.000       44
 16.100       37
 16.200       61
 16.300       41
 16.400       41
 16.500       48
 16.600       27
 16.700       48
 16.800       44
 16.900       41
 17.000       40
 17.100       48
 17.200       35
 17.300       46
 17.400       42
 17.500       49
 17.600       52
 17.700       44
 17.800       53
 17.900       46
 18.000       41
 18.100       53
 18.200       55
 18.300       64
 18.400       52
 18.500       44
 18.600       48
 18.700       44
 18.800       59
 18.900       52
 19.000       53
 19.100       56
 19.200       44
 19.300       50
 19.400       59
 19.500       56
 19.600       48
 19.700       52
 19.800       48
 19.900       46
 20.000       52
 20.100       66
 20.200       69
 20.300       48
 20.400       40
 20.500       53
 20.600       62
 20.700       61
 20.800       52
 20.900       48
 21.000       67
 21.100       59
 21.200       66
 21.300       56
 21.400       59
 21.500       53
 21.600       49
 21.700       62
 21.800       59
 21.900       56
 22.000       53
 22.100       56
 22.200       56
 22.300       53
 22.400       53
 22.500       44
 22.600       59
 22.700       52
 22.800       53
 22.900       46
 23.000       56
 23.100       50
 23.200       53
 23.300       55
 23.400       53
 23.500       62
 23.600       48
 23.700       67
 23.800       50
 23.900       48
 24.000       52
 24.100       66
 24.200       49
 24.300       52
 24.400       52
 24.500       48
 24.600       48
 24.700       53
 24.800       52
 24.900       59
 25.000       56
 25.100       44
 25.200       40
 25.300       58
 25.400       56
 25.500       50
 25.600       56
 25.700       53
 25.800       58
 25.900       53
 26.000       66
 26.100       48
 26.200       59
 26.300       61
 26.400       77
 26.500       56
 26.600       56
 26.700       55
 26.800       41
 26.900       56
 27.000       58
 27.100       59
 27.200       56
 27.300       66
 27.400       71
 27.500       50
 27.600       52
 27.700       59
 27.800       50
 27.900       72
 28.000       55
 28.100       53
 28.200       50
 28.300       52
 28.400       64
 28.500       59
 28.600       58
 28.700       67
 28.800       61
 28.900       64
 29.000       45
 29.100       53
 29.200       53
 29.300       53
 29.400       53
 29.500       48
 29.600       69
 29.700       66
 29.800       48
 29.900       50
 30.000       55