File: 2021/XRD/52021.ASC
  3.000       37
  3.100       48
  3.200       40
  3.300       44
  3.400       40
  3.500       44
  3.600       38
  3.700       48
  3.800       42
  3.900       44
  4.000       50
  4.100       55
  4.200       56
  4.300       52
  4.400       85
  4.500       86
  4.600       77
  4.700       88
  4.800       96
  4.900       85
  5.000      100
  5.100       86
  5.200       79
  5.300       69
  5.400       62
  5.500       56
  5.600       48
  5.700       49
  5.800       67
  5.900       53
  6.000       71
  6.100       53
  6.200       71
  6.300       64
  6.400       72
  6.500       76
  6.600       76
  6.700       79
  6.800       72
  6.900       83
  7.000       64
  7.100       76
  7.200       74
  7.300       83
  7.400       76
  7.500       58
  7.600       76
  7.700       67
  7.800       66
  7.900       71
  8.000       71
  8.100       72
  8.200       62
  8.300       76
  8.400       46
  8.500       67
  8.600       59
  8.700       53
  8.800       66
  8.900       56
  9.000       53
  9.100       53
  9.200       53
  9.300       53
  9.400       48
  9.500       55
  9.600       52
  9.700       44
  9.800       52
  9.900       50
 10.000       66
 10.100       48
 10.200       53
 10.300       50
 10.400       53
 10.500       46
 10.600       52
 10.700       55
 10.800       34
 10.900       44
 11.000       46
 11.100       59
 11.200       53
 11.300       38
 11.400       42
 11.500       52
 11.600       40
 11.700       42
 11.800       45
 11.900       44
 12.000       45
 12.100       44
 12.200       38
 12.300       44
 12.400       50
 12.500       50
 12.600       49
 12.700       42
 12.800       44
 12.900       41
 13.000       32
 13.100       56
 13.200       34
 13.300       37
 13.400       36
 13.500       46
 13.600       44
 13.700       45
 13.800       44
 13.900       38
 14.000       34
 14.100       32
 14.200       31
 14.300       34
 14.400       29
 14.500       42
 14.600       24
 14.700       22
 14.800       26
 14.900       32
 15.000       28
 15.100       31
 15.200       38
 15.300       31
 15.400       37
 15.500       38
 15.600       29
 15.700       40
 15.800       32
 15.900       16
 16.000       28
 16.100       27
 16.200       29
 16.300       38
 16.400       35
 16.500       22
 16.600       29
 16.700       31
 16.800       35
 16.900       38
 17.000       34
 17.100       35
 17.200       32
 17.300       36
 17.400       28
 17.500       38
 17.600       24
 17.700       35
 17.800       30
 17.900       29
 18.000       36
 18.100       35
 18.200       32
 18.300       32
 18.400       35
 18.500       42
 18.600       32
 18.700       35
 18.800       40
 18.900       23
 19.000       40
 19.100       36
 19.200       35
 19.300       34
 19.400       38
 19.500       48
 19.600       44
 19.700       40
 19.800       32
 19.900       26
 20.000       37
 20.100       37
 20.200       48
 20.300       37
 20.400       40
 20.500       31
 20.600       48
 20.700       45
 20.800       38
 20.900       34
 21.000       40
 21.100       32
 21.200       40
 21.300       31
 21.400       41
 21.500       48
 21.600       59
 21.700       53
 21.800       45
 21.900       48
 22.000       44
 22.100       37
 22.200       40
 22.300       44
 22.400       49
 22.500       46
 22.600       50
 22.700       40
 22.800       36
 22.900       41
 23.000       38
 23.100       31
 23.200       45
 23.300       42
 23.400       48
 23.500       32
 23.600       48
 23.700       42
 23.800       49
 23.900       29
 24.000       32
 24.100       42
 24.200       45
 24.300       45
 24.400       45
 24.500       38
 24.600       32
 24.700       45
 24.800       38
 24.900       28
 25.000       46
 25.100       40
 25.200       56
 25.300       44
 25.400       49
 25.500       44
 25.600       26
 25.700       38
 25.800       29
 25.900       44
 26.000       50
 26.100       50
 26.200       27
 26.300       38
 26.400       41
 26.500       36
 26.600       42
 26.700       41
 26.800       44
 26.900       48
 27.000       52
 27.100       32
 27.200       44
 27.300       37
 27.400       38
 27.500       52
 27.600       29
 27.700       38
 27.800       49
 27.900       52
 28.000       40
 28.100       45
 28.200       40
 28.300       53
 28.400       36
 28.500       48
 28.600       50
 28.700       44
 28.800       48
 28.900       48
 29.000       38
 29.100       41
 29.200       46
 29.300       41
 29.400       41
 29.500       67
 29.600       44
 29.700       32
 29.800       31
 29.900       50
 30.000       50